"Time (s)","Voltage (V)"
-9.875e-06,-0.000662
-9.871e-06,-0.000662
-9.866999999999999e-06,-0.000662
-9.863e-06,-0.000662
-9.859e-06,-0.000662
-9.855e-06,-0.000662
-9.851e-06,-0.000662
-9.846999999999999e-06,-0.000662
-9.842999999999999e-06,-0.000662
-9.839e-06,-0.000662
-9.835e-06,-0.000662
-9.831e-06,-0.000662
-9.827e-06,-0.000662
-9.822999999999999e-06,-0.000662
-9.818999999999999e-06,-0.000662
-9.815e-06,-0.000662
-9.811e-06,-0.000662
-9.807e-06,-0.000662
-9.802999999999999e-06,-0.000662
-9.798999999999999e-06,-0.000662
-9.795e-06,-0.000662
-9.791e-06,-0.000662
-9.787e-06,-0.000662
-9.783e-06,-0.000662
-9.778999999999999e-06,-0.000662
-9.774999999999999e-06,-0.000662
-9.771e-06,-0.000662
-9.767e-06,-0.000662
-9.763e-06,-0.000662
-9.759e-06,-0.000662
-9.754999999999999e-06,-0.000662
-9.750999999999999e-06,-0.000662
-9.747e-06,-0.000662
-9.743e-06,-0.000662
-9.739e-06,-0.000662
-9.734999999999999e-06,-0.000662
-9.730999999999999e-06,-0.000662
-9.727e-06,-0.000662
-9.723e-06,-0.000662
-9.719e-06,-0.000662
-9.715e-06,-0.000662
-9.710999999999999e-06,-0.000662
-9.706999999999999e-06,-0.000662
-9.703e-06,-0.000662
-9.699e-06,-0.000662
-9.695e-06,-0.000662
-9.691e-06,-0.000662
-9.686999999999999e-06,-0.000662
-9.682999999999999e-06,-0.000662
-9.679e-06,-0.000662
-9.675e-06,-0.000662
-9.671e-06,-0.000662
-9.666999999999999e-06,-0.000662
-9.662999999999999e-06,-0.000662
-9.659e-06,-0.000662
-9.655e-06,-0.000662
-9.651e-06,-0.000662
-9.647e-06,-0.000662
-9.642999999999999e-06,-0.000662
-9.638999999999999e-06,-0.000662
-9.635e-06,-0.000662
-9.631e-06,-0.000662
-9.627e-06,-0.000662
-9.623e-06,-0.000662
-9.618999999999999e-06,-0.000662
-9.615e-06,-0.000662
-9.611e-06,-0.000729
-9.607e-06,-0.000662
-9.603e-06,-0.000662
-9.598999999999999e-06,-0.000662
-9.594999999999999e-06,-0.000662
-9.591e-06,-0.000662
-9.587e-06,-0.000662
-9.583e-06,-0.000662
-9.579e-06,-0.000662
-9.574999999999999e-06,-0.000662
-9.570999999999999e-06,-0.000662
-9.567e-06,-0.000662
-9.563e-06,-0.000662
-9.559e-06,-0.000662
-9.554999999999999e-06,-0.000662
-9.550999999999999e-06,-0.000662
-9.547e-06,-0.000662
-9.543e-06,-0.000662
-9.539e-06,-0.000662
-9.535e-06,-0.000662
-9.530999999999999e-06,-0.000662
-9.526999999999999e-06,-0.000729
-9.523e-06,-0.000729
-9.519e-06,-0.000662
-9.515e-06,-0.000662
-9.511e-06,-0.000662
-9.506999999999999e-06,-0.000662
-9.502999999999999e-06,-0.000662
-9.499e-06,-0.000662
-9.495e-06,-0.000662
-9.491e-06,-0.000662
-9.486999999999999e-06,-0.000662
-9.482999999999999e-06,-0.000662
-9.479e-06,-0.000662
-9.475e-06,-0.000662
-9.471e-06,-0.000662
-9.467e-06,-0.000662
-9.462999999999999e-06,-0.000662
-9.458999999999999e-06,-0.000662
-9.455e-06,-0.000662
-9.451e-06,-0.000662
-9.447e-06,-0.000662
-9.443e-06,-0.000662
-9.438999999999999e-06,-0.000662
-9.435e-06,-0.000662
-9.431e-06,-0.000729
-9.427e-06,-0.000729
-9.423e-06,-0.000662
-9.418999999999999e-06,-0.000662
-9.414999999999999e-06,-0.000662
-9.411e-06,-0.000729
-9.407e-06,-0.000729
-9.403e-06,-0.000729
-9.399e-06,-0.000662
-9.394999999999999e-06,-0.000662
-9.390999999999999e-06,-0.000662
-9.387e-06,-0.000662
-9.383e-06,-0.000729
-9.379e-06,-0.000729
-9.375e-06,-0.000729
-9.370999999999999e-06,-0.000662
-9.367e-06,-0.000662
-9.363e-06,-0.000662
-9.359e-06,-0.000729
-9.355e-06,-0.000729
-9.350999999999999e-06,-0.000729
-9.346999999999999e-06,-0.000662
-9.343e-06,-0.000662
-9.339e-06,-0.000662
-9.335e-06,-0.000662
-9.331e-06,-0.000729
-9.326999999999999e-06,-0.000729
-9.322999999999999e-06,-0.000662
-9.319e-06,-0.000662
-9.315e-06,-0.000662
-9.311e-06,-0.000729
-9.306999999999999e-06,-0.000729
-9.302999999999999e-06,-0.000729
-9.299e-06,-0.000662
-9.295e-06,-0.000662
-9.291e-06,-0.000662
-9.287e-06,-0.000729
-9.282999999999999e-06,-0.000729
-9.278999999999999e-06,-0.000729
-9.275e-06,-0.000662
-9.271e-06,-0.000662
-9.267e-06,-0.000662
-9.263e-06,-0.000662
-9.258999999999999e-06,-0.000729
-9.254999999999999e-06,-0.000729
-9.251e-06,-0.000729
-9.247e-06,-0.000662
-9.243e-06,-0.000662
-9.238999999999999e-06,-0.000729
-9.234999999999999e-06,-0.000729
-9.231e-06,-0.000729
-9.227e-06,-0.000729
-9.223e-06,-0.000662
-9.219e-06,-0.000662
-9.214999999999999e-06,-0.000662
-9.210999999999999e-06,-0.000729
-9.207e-06,-0.000729
-9.203e-06,-0.000729
-9.199e-06,-0.000729
-9.195e-06,-0.000662
-9.190999999999999e-06,-0.000662
-9.186999999999999e-06,-0.000729
-9.183e-06,-0.000729
-9.179e-06,-0.000729
-9.175e-06,-0.000662
-9.170999999999999e-06,-0.000662
-9.166999999999999e-06,-0.000662
-9.163e-06,-0.000729
-9.159e-06,-0.000729
-9.155e-06,-0.000729
-9.151e-06,-0.000662
-9.146999999999999e-06,-0.000662
-9.142999999999999e-06,-0.000662
-9.139e-06,-0.000729
-9.135e-06,-0.000796
-9.131e-06,-0.000796
-9.127e-06,-0.000729
-9.122999999999999e-06,-0.000662
-9.118999999999999e-06,-0.000662
-9.115e-06,-0.000729
-9.111e-06,-0.000796
-9.107e-06,-0.000796
-9.102999999999999e-06,-0.000729
-9.098999999999999e-06,-0.000662
-9.095e-06,-0.000662
-9.091e-06,-0.000729
-9.087e-06,-0.000796
-9.083e-06,-0.000796
-9.078999999999999e-06,-0.000729
-9.074999999999999e-06,-0.000662
-9.071e-06,-0.000662
-9.067e-06,-0.000729
-9.063e-06,-0.000796
-9.059e-06,-0.000796
-9.054999999999999e-06,-0.000729
-9.050999999999999e-06,-0.000662
-9.047e-06,-0.000662
-9.043e-06,-0.000729
-9.039e-06,-0.000796
-9.034999999999999e-06,-0.000796
-9.030999999999999e-06,-0.000729
-9.027e-06,-0.000662
-9.023e-06,-0.000662
-9.019e-06,-0.000662
-9.015e-06,-0.000796
-9.010999999999999e-06,-0.000796
-9.006999999999999e-06,-0.000729
-9.003e-06,-0.000662
-8.999e-06,-0.000662
-8.995e-06,-0.000662
-8.990999999999999e-06,-0.000796
-8.986999999999999e-06,-0.000863
-8.982999999999999e-06,-0.000796
-8.979e-06,-0.000662
-8.975e-06,-0.000662
-8.971e-06,-0.000662
-8.966999999999999e-06,-0.000796
-8.962999999999999e-06,-0.000863
-8.959e-06,-0.000796
-8.955e-06,-0.000729
-8.951e-06,-0.000595
-8.947e-06,-0.000662
-8.942999999999999e-06,-0.000729
-8.939e-06,-0.000863
-8.935e-06,-0.000796
-8.931e-06,-0.000729
-8.927e-06,-0.000595
-8.922999999999999e-06,-0.000662
-8.918999999999999e-06,-0.000729
-8.914999999999999e-06,-0.000863
-8.911e-06,-0.000863
-8.907e-06,-0.000729
-8.903e-06,-0.000595
-8.898999999999999e-06,-0.000662
-8.894999999999999e-06,-0.000729
-8.891e-06,-0.000863
-8.887e-06,-0.000863
-8.883e-06,-0.000729
-8.879e-06,-0.000662
-8.874999999999999e-06,-0.000662
-8.871e-06,-0.000729
-8.867e-06,-0.000863
-8.863e-06,-0.000863
-8.859e-06,-0.000729
-8.854999999999999e-06,-0.000662
-8.850999999999999e-06,-0.000662
-8.846999999999998e-06,-0.000729
-8.843e-06,-0.000863
-8.839e-06,-0.000863
-8.835e-06,-0.000796
-8.830999999999999e-06,-0.000662
-8.826999999999999e-06,-0.000595
-8.823e-06,-0.000662
-8.819e-06,-0.000863
-8.815e-06,-0.000863
-8.811e-06,-0.000796
-8.806999999999999e-06,-0.000662
-8.803e-06,-0.000595
-8.799e-06,-0.000729
-8.795e-06,-0.000863
-8.791e-06,-0.00093
-8.786999999999999e-06,-0.000796
-8.782999999999999e-06,-0.000662
-8.779e-06,-0.000595
-8.775e-06,-0.000729
-8.771e-06,-0.000863
-8.767e-06,-0.00093
-8.762999999999999e-06,-0.000863
-8.758999999999999e-06,-0.000662
-8.755e-06,-0.000595
-8.751e-06,-0.000729
-8.747e-06,-0.000863
-8.742999999999999e-06,-0.00093
-8.738999999999999e-06,-0.000863
-8.735e-06,-0.000662
-8.731e-06,-0.000595
-8.727e-06,-0.000662
-8.723e-06,-0.000863
-8.718999999999999e-06,-0.00093
-8.714999999999999e-06,-0.000863
-8.711e-06,-0.000662
-8.707e-06,-0.000595
-8.703e-06,-0.000662
-8.699e-06,-0.000863
-8.694999999999999e-06,-0.00093
-8.690999999999999e-06,-0.000863
-8.687e-06,-0.000662
-8.683e-06,-0.000595
-8.679e-06,-0.000662
-8.674999999999999e-06,-0.000863
-8.670999999999999e-06,-0.00093
-8.667e-06,-0.000863
-8.663e-06,-0.000662
-8.659e-06,-0.000528
-8.655e-06,-0.000662
-8.650999999999999e-06,-0.000863
-8.646999999999999e-06,-0.00093
-8.643e-06,-0.00093
-8.639e-06,-0.000662
-8.635e-06,-0.000528
-8.631e-06,-0.000595
-8.626999999999999e-06,-0.000796
-8.622999999999999e-06,-0.00093
-8.619e-06,-0.00093
-8.615e-06,-0.000729
-8.611e-06,-0.000595
-8.606999999999999e-06,-0.000595
-8.602999999999999e-06,-0.000796
-8.599e-06,-0.00093
-8.595e-06,-0.00093
-8.591e-06,-0.000729
-8.587e-06,-0.000528
-8.582999999999999e-06,-0.000595
-8.578999999999999e-06,-0.000796
-8.575e-06,-0.00093
-8.571e-06,-0.00093
-8.567e-06,-0.000729
-8.563e-06,-0.000528
-8.558999999999999e-06,-0.000595
-8.554999999999999e-06,-0.000863
-8.551e-06,-0.000997
-8.547e-06,-0.00093
-8.543e-06,-0.000796
-8.538999999999999e-06,-0.000528
-8.534999999999999e-06,-0.000595
-8.531e-06,-0.000796
-8.527e-06,-0.00093
-8.523e-06,-0.00093
-8.519e-06,-0.000729
-8.514999999999999e-06,-0.000528
-8.511e-06,-0.000595
-8.507e-06,-0.000796
-8.503e-06,-0.00093
-8.499e-06,-0.00093
-8.494999999999999e-06,-0.000729
-8.490999999999999e-06,-0.000528
-8.486999999999999e-06,-0.000528
-8.483e-06,-0.000796
-8.479e-06,-0.00093
-8.475e-06,-0.00093
-8.470999999999999e-06,-0.000796
-8.466999999999999e-06,-0.000528
-8.463e-06,-0.000595
-8.459e-06,-0.000796
-8.455e-06,-0.000997
-8.451e-06,-0.00093
-8.446999999999999e-06,-0.000796
-8.443e-06,-0.000528
-8.439e-06,-0.000528
-8.435e-06,-0.000796
-8.431e-06,-0.000997
-8.426999999999999e-06,-0.00093
-8.422999999999999e-06,-0.000796
-8.418999999999999e-06,-0.000528
-8.415e-06,-0.000528
-8.411e-06,-0.000796
-8.407e-06,-0.000997
-8.402999999999999e-06,-0.000997
-8.398999999999999e-06,-0.000796
-8.395e-06,-0.000528
-8.391e-06,-0.000528
-8.387e-06,-0.000796
-8.383e-06,-0.000997
-8.378999999999999e-06,-0.000997
-8.375e-06,-0.000796
-8.371e-06,-0.000528
-8.367e-06,-0.000528
-8.363e-06,-0.000863
-8.358999999999999e-06,-0.001064
-8.354999999999999e-06,-0.000997
-8.350999999999998e-06,-0.000796
-8.347e-06,-0.000528
-8.343e-06,-0.000528
-8.339e-06,-0.000796
-8.334999999999999e-06,-0.000997
-8.330999999999999e-06,-0.000997
-8.327e-06,-0.000796
-8.323e-06,-0.000528
-8.319e-06,-0.000528
-8.315e-06,-0.000863
-8.310999999999999e-06,-0.001064
-8.307e-06,-0.000997
-8.303e-06,-0.000796
-8.299e-06,-0.00046100000000000004
-8.295e-06,-0.000528
-8.290999999999999e-06,-0.000863
-8.286999999999999e-06,-0.001064
-8.282999999999998e-06,-0.000997
-8.279e-06,-0.000729
-8.275e-06,-0.00046100000000000004
-8.271e-06,-0.000528
-8.266999999999999e-06,-0.000863
-8.262999999999999e-06,-0.001064
-8.259e-06,-0.001064
-8.255e-06,-0.000796
-8.251e-06,-0.00046100000000000004
-8.246999999999999e-06,-0.000528
-8.242999999999999e-06,-0.000863
-8.239e-06,-0.001131
-8.235e-06,-0.001064
-8.231e-06,-0.000796
-8.227e-06,-0.00046100000000000004
-8.222999999999999e-06,-0.000528
-8.218999999999999e-06,-0.000863
-8.214999999999998e-06,-0.001064
-8.211e-06,-0.000997
-8.207e-06,-0.000729
-8.203e-06,-0.00039400000000000004
-8.198999999999999e-06,-0.00046100000000000004
-8.194999999999999e-06,-0.000863
-8.191e-06,-0.001131
-8.187e-06,-0.000997
-8.183e-06,-0.000729
-8.178999999999999e-06,-0.00046100000000000004
-8.174999999999999e-06,-0.000528
-8.171e-06,-0.00093
-8.167e-06,-0.001131
-8.163e-06,-0.000997
-8.159e-06,-0.000729
-8.154999999999999e-06,-0.00039400000000000004
-8.150999999999999e-06,-0.000528
-8.147e-06,-0.00093
-8.143e-06,-0.001131
-8.139e-06,-0.000997
-8.135e-06,-0.000662
-8.130999999999999e-06,-0.00039400000000000004
-8.126999999999999e-06,-0.000528
-8.123e-06,-0.00093
-8.119e-06,-0.001198
-8.115e-06,-0.000997
-8.110999999999999e-06,-0.000662
-8.106999999999999e-06,-0.00039400000000000004
-8.103e-06,-0.000595
-8.099e-06,-0.00093
-8.095e-06,-0.001198
-8.091e-06,-0.001064
-8.086999999999999e-06,-0.000662
-8.082999999999999e-06,-0.00039400000000000004
-8.079e-06,-0.000595
-8.075e-06,-0.00093
-8.071e-06,-0.001198
-8.067e-06,-0.000997
-8.062999999999999e-06,-0.000595
-8.058999999999999e-06,-0.00039400000000000004
-8.055e-06,-0.000595
-8.051e-06,-0.000997
-8.047e-06,-0.001198
-8.042999999999999e-06,-0.000997
-8.038999999999999e-06,-0.000595
-8.035e-06,-0.00032700000000000003
-8.031e-06,-0.000595
-8.027e-06,-0.000997
-8.023e-06,-0.001198
-8.018999999999999e-06,-0.00093
-8.014999999999999e-06,-0.000528
-8.011e-06,-0.00032700000000000003
-8.007e-06,-0.000595
-8.003e-06,-0.000997
-7.998999999999999e-06,-0.001198
-7.994999999999999e-06,-0.00093
-7.990999999999999e-06,-0.000528
-7.987e-06,-0.00032700000000000003
-7.983e-06,-0.000662
-7.979e-06,-0.001064
-7.974999999999999e-06,-0.001198
-7.970999999999999e-06,-0.00093
-7.967e-06,-0.00046100000000000004
-7.963e-06,-0.00032700000000000003
-7.959e-06,-0.000729
-7.955e-06,-0.001131
-7.950999999999999e-06,-0.001265
-7.947e-06,-0.00093
-7.942999999999998e-06,-0.00046100000000000004
-7.939e-06,-0.00039400000000000004
-7.935e-06,-0.000796
-7.930999999999999e-06,-0.001198
-7.926999999999999e-06,-0.001265
-7.922999999999999e-06,-0.00093
-7.919e-06,-0.00039400000000000004
-7.915e-06,-0.00039400000000000004
-7.911e-06,-0.000796
-7.906999999999999e-06,-0.001198
-7.902999999999999e-06,-0.001265
-7.899e-06,-0.000863
-7.895e-06,-0.00039400000000000004
-7.891e-06,-0.00039400000000000004
-7.887e-06,-0.000863
-7.882999999999999e-06,-0.001198
-7.879e-06,-0.001198
-7.874999999999998e-06,-0.000796
-7.871e-06,-0.00032700000000000003
-7.867e-06,-0.00039400000000000004
-7.862999999999999e-06,-0.000863
-7.858999999999999e-06,-0.001265
-7.854999999999998e-06,-0.001198
-7.851e-06,-0.000729
-7.847e-06,-0.00032700000000000003
-7.843e-06,-0.00039400000000000004
-7.838999999999999e-06,-0.00093
-7.834999999999999e-06,-0.001265
-7.831e-06,-0.001131
-7.827e-06,-0.000662
-7.823e-06,-0.00026000000000000003
-7.819e-06,-0.00046100000000000004
-7.814999999999999e-06,-0.00093
-7.811e-06,-0.001332
-7.807e-06,-0.001131
-7.803e-06,-0.000662
-7.799e-06,-0.00026000000000000003
-7.794999999999999e-06,-0.00046100000000000004
-7.790999999999999e-06,-0.000997
-7.786999999999998e-06,-0.001332
-7.783e-06,-0.001131
-7.779e-06,-0.000595
-7.775e-06,-0.00026000000000000003
-7.770999999999999e-06,-0.000528
-7.766999999999999e-06,-0.001064
-7.763e-06,-0.001399
-7.759e-06,-0.001064
-7.755e-06,-0.000528
-7.750999999999999e-06,-0.00026000000000000003
-7.746999999999999e-06,-0.000595
-7.743e-06,-0.001131
-7.739e-06,-0.001399
-7.735e-06,-0.000997
-7.731e-06,-0.00046100000000000004
-7.726999999999999e-06,-0.00026000000000000003
-7.722999999999999e-06,-0.000729
-7.718999999999998e-06,-0.001198
-7.715e-06,-0.001399
-7.711e-06,-0.00093
-7.707e-06,-0.00039400000000000004
-7.702999999999999e-06,-0.00026000000000000003
-7.698999999999999e-06,-0.000729
-7.695e-06,-0.001265
-7.691e-06,-0.001332
-7.687e-06,-0.00093
-7.682999999999999e-06,-0.00032700000000000003
-7.678999999999999e-06,-0.00026000000000000003
-7.675e-06,-0.000863
-7.671e-06,-0.001332
-7.667e-06,-0.001332
-7.663e-06,-0.000863
-7.658999999999999e-06,-0.00026000000000000003
-7.654999999999999e-06,-0.00032700000000000003
-7.650999999999998e-06,-0.00093
-7.647e-06,-0.001399
-7.643e-06,-0.001332
-7.639e-06,-0.000796
-7.634999999999999e-06,-0.00026000000000000003
-7.630999999999999e-06,-0.00039400000000000004
-7.626999999999999e-06,-0.00093
-7.623e-06,-0.001399
-7.618999999999999e-06,-0.001198
-7.614999999999999e-06,-0.000662
-7.610999999999999e-06,-0.00019300000000000003
-7.606999999999999e-06,-0.00039400000000000004
-7.603e-06,-0.000997
-7.599e-06,-0.001466
-7.594999999999999e-06,-0.001198
-7.590999999999999e-06,-0.000595
-7.5869999999999995e-06,-0.00019300000000000003
-7.582999999999999e-06,-0.000528
-7.579e-06,-0.001131
-7.5749999999999995e-06,-0.001466
-7.570999999999999e-06,-0.001064
-7.566999999999999e-06,-0.00046100000000000004
-7.562999999999999e-06,-0.00019300000000000003
-7.559e-06,-0.000595
-7.555e-06,-0.001265
-7.550999999999999e-06,-0.001466
-7.546999999999999e-06,-0.000997
-7.542999999999999e-06,-0.00039400000000000004
-7.538999999999999e-06,-0.00019300000000000003
-7.535e-06,-0.000729
-7.5309999999999996e-06,-0.001332
-7.526999999999999e-06,-0.001466
-7.522999999999999e-06,-0.00093
-7.5189999999999995e-06,-0.00026000000000000003
-7.514999999999999e-06,-0.00019300000000000003
-7.511e-06,-0.000796
-7.5069999999999994e-06,-0.001399
-7.502999999999999e-06,-0.001399
-7.498999999999999e-06,-0.000863
-7.494999999999999e-06,-0.00026000000000000003
-7.491e-06,-0.00026000000000000003
-7.487e-06,-0.00093
-7.482999999999999e-06,-0.001466
-7.478999999999999e-06,-0.001332
-7.474999999999999e-06,-0.000729
-7.470999999999999e-06,-0.00019300000000000003
-7.467e-06,-0.00039400000000000004
-7.4629999999999995e-06,-0.000997
-7.458999999999999e-06,-0.001533
-7.454999999999999e-06,-0.001265
-7.4509999999999995e-06,-0.000595
-7.446999999999999e-06,-0.00019300000000000003
-7.443e-06,-0.00046100000000000004
-7.438999999999999e-06,-0.001131
-7.434999999999999e-06,-0.0016
-7.430999999999999e-06,-0.001198
-7.426999999999999e-06,-0.000528
-7.423e-06,-0.00012600000000000003
-7.419e-06,-0.000595
-7.414999999999999e-06,-0.001265
-7.410999999999999e-06,-0.001533
-7.406999999999999e-06,-0.001064
-7.402999999999999e-06,-0.00039400000000000004
-7.399e-06,-0.00012600000000000003
-7.3949999999999995e-06,-0.000729
-7.390999999999999e-06,-0.001399
-7.386999999999999e-06,-0.001533
-7.3829999999999994e-06,-0.00093
-7.378999999999999e-06,-0.00026000000000000003
-7.375e-06,-0.00019300000000000003
-7.370999999999999e-06,-0.000863
-7.366999999999999e-06,-0.001466
-7.362999999999999e-06,-0.001466
-7.358999999999999e-06,-0.000863
-7.355e-06,-0.00019300000000000003
-7.351e-06,-0.00026000000000000003
-7.346999999999999e-06,-0.00093
-7.342999999999999e-06,-0.001533
-7.338999999999999e-06,-0.001399
-7.334999999999999e-06,-0.000729
-7.331e-06,-0.00012600000000000003
-7.3269999999999995e-06,-0.00032700000000000003
-7.322999999999999e-06,-0.001064
-7.318999999999999e-06,-0.0016
-7.314999999999999e-06,-0.001332
-7.310999999999999e-06,-0.000595
-7.307e-06,-5.9000000000000025e-05
-7.302999999999999e-06,-0.00046100000000000004
-7.298999999999999e-06,-0.001198
-7.294999999999999e-06,-0.0016
-7.290999999999999e-06,-0.001198
-7.287e-06,-0.00039400000000000004
-7.2829999999999996e-06,-5.9000000000000025e-05
-7.278999999999999e-06,-0.000595
-7.274999999999999e-06,-0.001332
-7.2709999999999995e-06,-0.0016
-7.266999999999999e-06,-0.001064
-7.263e-06,-0.00026000000000000003
-7.2589999999999994e-06,-0.00012600000000000003
-7.254999999999999e-06,-0.000729
-7.250999999999999e-06,-0.001466
-7.246999999999999e-06,-0.001533
-7.243e-06,-0.00093
-7.239e-06,-0.00012600000000000003
-7.234999999999999e-06,-0.00019300000000000003
-7.230999999999999e-06,-0.00093
-7.226999999999999e-06,-0.0016
-7.222999999999999e-06,-0.001533
-7.219e-06,-0.000796
-7.2149999999999995e-06,-5.9000000000000025e-05
-7.210999999999999e-06,-0.00026000000000000003
-7.206999999999999e-06,-0.001064
-7.2029999999999995e-06,-0.001667
-7.198999999999999e-06,-0.001332
-7.195e-06,-0.000528
-7.190999999999999e-06,7.999999999999978e-06
-7.186999999999999e-06,-0.00039400000000000004
-7.182999999999999e-06,-0.001265
-7.178999999999999e-06,-0.001667
-7.175e-06,-0.001265
-7.171e-06,-0.00039400000000000004
-7.166999999999999e-06,7.999999999999978e-06
-7.162999999999999e-06,-0.000595
-7.158999999999999e-06,-0.001399
-7.154999999999999e-06,-0.001667
-7.151e-06,-0.001064
-7.1469999999999995e-06,-0.00026000000000000003
-7.142999999999999e-06,-5.9000000000000025e-05
-7.138999999999999e-06,-0.000796
-7.1349999999999994e-06,-0.001533
-7.130999999999999e-06,-0.001667
-7.127e-06,-0.00093
-7.122999999999999e-06,-0.00012600000000000003
-7.118999999999999e-06,-0.00012600000000000003
-7.114999999999999e-06,-0.00093
-7.110999999999999e-06,-0.001667
-7.107e-06,-0.001533
-7.103e-06,-0.000729
-7.098999999999999e-06,-5.9000000000000025e-05
-7.094999999999999e-06,-0.00026000000000000003
-7.090999999999999e-06,-0.001131
-7.086999999999999e-06,-0.001734
-7.083e-06,-0.001399
-7.0789999999999995e-06,-0.000528
-7.074999999999999e-06,7.999999999999978e-06
-7.070999999999999e-06,-0.00046100000000000004
-7.066999999999999e-06,-0.001332
-7.062999999999999e-06,-0.001734
-7.059e-06,-0.001198
-7.054999999999999e-06,-0.00032700000000000003
-7.050999999999999e-06,7.999999999999978e-06
-7.046999999999999e-06,-0.000662
-7.042999999999999e-06,-0.001466
-7.039e-06,-0.001734
-7.0349999999999996e-06,-0.00093
-7.030999999999999e-06,-0.00012600000000000003
-7.026999999999999e-06,-5.9000000000000025e-05
-7.0229999999999995e-06,-0.000863
-7.018999999999999e-06,-0.001667
-7.015e-06,-0.0016
-7.0109999999999995e-06,-0.000796
-7.006999999999999e-06,7.999999999999978e-06
-7.002999999999999e-06,-0.00012600000000000003
-6.998999999999999e-06,-0.000997
-6.994999999999999e-06,-0.001734
-6.991e-06,-0.001466
-6.986999999999999e-06,-0.000595
-6.982999999999999e-06,7.499999999999998e-05
-6.978999999999999e-06,-0.00039400000000000004
-6.974999999999999e-06,-0.001332
-6.971e-06,-0.001801
-6.9669999999999995e-06,-0.001265
-6.962999999999999e-06,-0.00032700000000000003
-6.958999999999999e-06,7.499999999999998e-05
-6.9549999999999995e-06,-0.000595
-6.950999999999999e-06,-0.001533
-6.947e-06,-0.001801
-6.9429999999999994e-06,-0.001064
-6.938999999999999e-06,-0.00012600000000000003
-6.934999999999999e-06,7.999999999999978e-06
-6.930999999999999e-06,-0.000863
-6.927e-06,-0.001667
-6.923e-06,-0.001734
-6.918999999999999e-06,-0.000863
-6.914999999999999e-06,7.999999999999978e-06
-6.910999999999999e-06,-0.00012600000000000003
-6.906999999999999e-06,-0.000997
-6.903e-06,-0.001801
-6.8989999999999995e-06,-0.001533
-6.894999999999999e-06,-0.000595
-6.890999999999999e-06,0.00014199999999999998
-6.8869999999999995e-06,-0.00032700000000000003
-6.882999999999999e-06,-0.001265
-6.879e-06,-0.001868
-6.874999999999999e-06,-0.001332
-6.870999999999999e-06,-0.00032700000000000003
-6.866999999999999e-06,0.00014199999999999998
-6.862999999999999e-06,-0.000528
-6.859e-06,-0.001533
-6.855e-06,-0.001801
-6.850999999999999e-06,-0.001064
-6.846999999999999e-06,-5.9000000000000025e-05
-6.842999999999999e-06,7.499999999999998e-05
-6.838999999999999e-06,-0.000863
-6.835e-06,-0.001734
-6.8309999999999995e-06,-0.001734
-6.826999999999999e-06,-0.000863
-6.822999999999999e-06,7.499999999999998e-05
-6.8189999999999994e-06,-5.9000000000000025e-05
-6.814999999999999e-06,-0.001064
-6.811e-06,-0.001868
-6.806999999999999e-06,-0.001533
-6.802999999999999e-06,-0.000528
-6.798999999999999e-06,0.00014199999999999998
-6.794999999999999e-06,-0.00032700000000000003
-6.791e-06,-0.001399
-6.7869999999999996e-06,-0.001935
-6.782999999999999e-06,-0.001332
-6.778999999999999e-06,-0.00026000000000000003
-6.774999999999999e-06,0.00020899999999999998
-6.770999999999999e-06,-0.000595
-6.767e-06,-0.0016
-6.7629999999999995e-06,-0.001868
-6.758999999999999e-06,-0.000997
-6.754999999999999e-06,7.999999999999978e-06
-6.750999999999999e-06,7.499999999999998e-05
-6.746999999999999e-06,-0.00093
-6.743e-06,-0.001868
-6.738999999999999e-06,-0.001734
-6.734999999999999e-06,-0.000729
-6.730999999999999e-06,0.00020899999999999998
-6.726999999999999e-06,-5.9000000000000025e-05
-6.723e-06,-0.001198
-6.7189999999999995e-06,-0.001935
-6.714999999999999e-06,-0.001533
-6.710999999999999e-06,-0.00039400000000000004
-6.7069999999999995e-06,0.00020899999999999998
-6.702999999999999e-06,-0.00039400000000000004
-6.699e-06,-0.001466
-6.6949999999999994e-06,-0.001935
-6.690999999999999e-06,-0.001198
-6.686999999999999e-06,-5.9000000000000025e-05
-6.682999999999999e-06,0.00020899999999999998
-6.678999999999999e-06,-0.000729
-6.675e-06,-0.001801
-6.670999999999999e-06,-0.001868
-6.666999999999999e-06,-0.00093
-6.662999999999999e-06,0.00014199999999999998
-6.658999999999999e-06,7.499999999999998e-05
-6.655e-06,-0.000997
-6.6509999999999995e-06,-0.001935
-6.646999999999999e-06,-0.0016
-6.642999999999999e-06,-0.000528
-6.6389999999999995e-06,0.000343
-6.634999999999999e-06,-0.00019300000000000003
-6.631e-06,-0.001332
-6.626999999999999e-06,-0.002069
-6.622999999999999e-06,-0.001332
-6.618999999999999e-06,-0.00019300000000000003
-6.614999999999999e-06,0.000276
-6.611e-06,-0.000528
-6.607e-06,-0.001734
-6.602999999999999e-06,-0.0020020000000000003
-6.598999999999999e-06,-0.000997
-6.594999999999999e-06,7.499999999999998e-05
-6.590999999999999e-06,0.00014199999999999998
-6.587e-06,-0.00093
-6.5829999999999995e-06,-0.001935
-6.578999999999999e-06,-0.001801
-6.574999999999999e-06,-0.000662
-6.5709999999999994e-06,0.000276
-6.566999999999999e-06,-5.9000000000000025e-05
-6.563e-06,-0.001265
-6.558999999999999e-06,-0.002069
-6.554999999999999e-06,-0.001533
-6.550999999999999e-06,-0.00032700000000000003
-6.546999999999999e-06,0.000343
-6.543e-06,-0.00046100000000000004
-6.5389999999999996e-06,-0.001667
-6.534999999999999e-06,-0.002136
-6.530999999999999e-06,-0.001131
-6.526999999999999e-06,7.499999999999998e-05
-6.522999999999999e-06,0.000276
-6.519e-06,-0.000863
-6.5149999999999995e-06,-0.001935
-6.510999999999999e-06,-0.001935
-6.506999999999999e-06,-0.000796
-6.502999999999999e-06,0.000276
-6.498999999999999e-06,7.999999999999978e-06
-6.495e-06,-0.001198
-6.490999999999999e-06,-0.002136
-6.486999999999999e-06,-0.0016
-6.482999999999999e-06,-0.00032700000000000003
-6.478999999999999e-06,0.00041
-6.475e-06,-0.00032700000000000003
-6.4709999999999995e-06,-0.001667
-6.466999999999999e-06,-0.002203
-6.462999999999999e-06,-0.001265
-6.458999999999999e-06,7.499999999999998e-05
-6.454999999999999e-06,0.000343
-6.451e-06,-0.000796
-6.4469999999999994e-06,-0.0020020000000000003
-6.442999999999999e-06,-0.002069
-6.438999999999999e-06,-0.000863
-6.434999999999999e-06,0.000343
-6.430999999999999e-06,0.00014199999999999998
-6.427e-06,-0.001198
-6.422999999999999e-06,-0.002203
-6.418999999999999e-06,-0.001734
-6.414999999999999e-06,-0.00032700000000000003
-6.410999999999999e-06,0.000477
-6.407e-06,-0.00026000000000000003
-6.4029999999999995e-06,-0.001667
-6.398999999999999e-06,-0.0022700000000000003
-6.394999999999999e-06,-0.001332
-6.3909999999999995e-06,7.499999999999998e-05
-6.386999999999999e-06,0.00041
-6.383e-06,-0.000796
-6.378999999999999e-06,-0.002069
-6.374999999999999e-06,-0.002136
-6.370999999999999e-06,-0.000863
-6.366999999999999e-06,0.00041
-6.362999999999999e-06,0.00020899999999999998
-6.359e-06,-0.001198
-6.354999999999999e-06,-0.0022700000000000003
-6.350999999999999e-06,-0.001801
-6.346999999999999e-06,-0.00032700000000000003
-6.342999999999999e-06,0.000544
-6.339e-06,-0.00026000000000000003
-6.3349999999999995e-06,-0.001734
-6.330999999999999e-06,-0.002337
-6.326999999999999e-06,-0.001332
-6.3229999999999994e-06,0.00014199999999999998
-6.318999999999999e-06,0.000477
-6.315e-06,-0.000796
-6.310999999999999e-06,-0.002136
-6.306999999999999e-06,-0.002203
-6.302999999999999e-06,-0.000863
-6.298999999999999e-06,0.000477
-6.295e-06,0.00020899999999999998
-6.2909999999999996e-06,-0.001265
-6.286999999999999e-06,-0.002337
-6.282999999999999e-06,-0.001801
-6.278999999999999e-06,-0.00026000000000000003
-6.274999999999999e-06,0.000611
-6.271e-06,-0.00026000000000000003
-6.2669999999999995e-06,-0.001801
-6.262999999999999e-06,-0.002404
-6.258999999999999e-06,-0.001265
-6.254999999999999e-06,0.000276
-6.250999999999999e-06,0.000544
-6.247e-06,-0.000863
-6.242999999999999e-06,-0.002203
-6.238999999999999e-06,-0.002136
-6.234999999999999e-06,-0.000729
-6.230999999999999e-06,0.000611
-6.227e-06,0.00020899999999999998
-6.2229999999999995e-06,-0.001399
-6.218999999999999e-06,-0.002471
-6.214999999999999e-06,-0.001734
-6.210999999999999e-06,-0.00012600000000000003
-6.206999999999999e-06,0.000678
-6.203e-06,-0.00039400000000000004
-6.1989999999999994e-06,-0.0020020000000000003
-6.194999999999999e-06,-0.002471
-6.190999999999999e-06,-0.001198
-6.186999999999999e-06,0.00041
-6.182999999999999e-06,0.000544
-6.179e-06,-0.00093
-6.174999999999999e-06,-0.002404
-6.170999999999999e-06,-0.002136
-6.166999999999999e-06,-0.000528
-6.162999999999999e-06,0.000745
-6.159e-06,7.499999999999998e-05
-6.1549999999999995e-06,-0.0016
-6.150999999999999e-06,-0.002605
-6.146999999999999e-06,-0.0016
-6.142999999999999e-06,0.00014199999999999998
-6.138999999999999e-06,0.000745
-6.135e-06,-0.000528
-6.130999999999999e-06,-0.002203
-6.126999999999999e-06,-0.002471
-6.122999999999999e-06,-0.00093
-6.118999999999999e-06,0.000611
-6.114999999999999e-06,0.000477
-6.111e-06,-0.001198
-6.106999999999999e-06,-0.0025380000000000003
-6.102999999999999e-06,-0.002069
-6.098999999999999e-06,-0.00032700000000000003
-6.094999999999999e-06,0.000812
-6.091e-06,-5.9000000000000025e-05
-6.0869999999999995e-06,-0.001868
-6.082999999999999e-06,-0.002672
-6.078999999999999e-06,-0.001399
-6.0749999999999994e-06,0.000343
-6.070999999999999e-06,0.000745
-6.067e-06,-0.000796
-6.062999999999999e-06,-0.002471
-6.058999999999999e-06,-0.002404
-6.055e-06,-0.000729
-6.050999999999999e-06,0.000812
-6.046999999999999e-06,0.000343
-6.0429999999999996e-06,-0.001466
-6.038999999999999e-06,-0.002739
-6.034999999999999e-06,-0.001868
-6.0309999999999995e-06,7.999999999999978e-06
-6.026999999999999e-06,0.000879
-6.022999999999999e-06,-0.00032700000000000003
-6.0189999999999995e-06,-0.0022700000000000003
-6.014999999999999e-06,-0.002739
-6.010999999999999e-06,-0.001131
-6.006999999999999e-06,0.000611
-6.002999999999999e-06,0.000678
-5.999e-06,-0.001064
-5.994999999999999e-06,-0.002672
-5.990999999999999e-06,-0.0022700000000000003
-5.987e-06,-0.00039400000000000004
-5.982999999999999e-06,0.000946
-5.978999999999999e-06,7.499999999999998e-05
-5.9749999999999995e-06,-0.001935
-5.970999999999999e-06,-0.002873
-5.966999999999999e-06,-0.0016
-5.9629999999999995e-06,0.00041
-5.958999999999999e-06,0.000946
-5.954999999999999e-06,-0.000729
-5.9509999999999994e-06,-0.002605
-5.946999999999999e-06,-0.002605
-5.942999999999999e-06,-0.000796
-5.938999999999999e-06,0.000946
-5.934999999999999e-06,0.000477
-5.931e-06,-0.001533
-5.926999999999999e-06,-0.00294
-5.922999999999999e-06,-0.0020020000000000003
-5.9189999999999996e-06,0.00014199999999999998
-5.914999999999999e-06,0.00108
-5.910999999999999e-06,-0.00032700000000000003
-5.9069999999999995e-06,-0.002404
-5.902999999999999e-06,-0.002873
-5.898999999999999e-06,-0.001198
-5.8949999999999995e-06,0.000745
-5.890999999999999e-06,0.000745
-5.886999999999999e-06,-0.001198
-5.882999999999999e-06,-0.00294
-5.878999999999999e-06,-0.002404
-5.874999999999999e-06,-0.00026000000000000003
-5.870999999999999e-06,0.0011469999999999998
-5.866999999999999e-06,7.499999999999998e-05
-5.863e-06,-0.002069
-5.858999999999999e-06,-0.0030740000000000003
-5.854999999999999e-06,-0.001533
-5.8509999999999995e-06,0.000611
-5.846999999999999e-06,0.001013
-5.842999999999999e-06,-0.000863
-5.8389999999999995e-06,-0.0028060000000000003
-5.834999999999999e-06,-0.002672
-5.830999999999999e-06,-0.000595
-5.8269999999999994e-06,0.0011469999999999998
-5.822999999999999e-06,0.00041
-5.818999999999999e-06,-0.001801
-5.814999999999999e-06,-0.003208
-5.810999999999999e-06,-0.001935
-5.807e-06,0.000343
-5.802999999999999e-06,0.001214
-5.798999999999999e-06,-0.000528
-5.7949999999999996e-06,-0.002672
-5.790999999999999e-06,-0.00294
-5.786999999999999e-06,-0.00093
-5.7829999999999995e-06,0.00108
-5.778999999999999e-06,0.000745
-5.774999999999999e-06,-0.001533
-5.7709999999999995e-06,-0.003208
-5.766999999999999e-06,-0.002337
-5.762999999999999e-06,7.499999999999998e-05
-5.758999999999999e-06,0.0012810000000000002
-5.754999999999999e-06,-0.00019300000000000003
-5.750999999999999e-06,-0.0025380000000000003
-5.746999999999999e-06,-0.003208
-5.742999999999999e-06,-0.001265
-5.739e-06,0.000946
-5.734999999999999e-06,0.001013
-5.730999999999999e-06,-0.001198
-5.7269999999999995e-06,-0.003208
-5.722999999999999e-06,-0.002605
-5.718999999999999e-06,-0.00019300000000000003
-5.7149999999999995e-06,0.0014149999999999998
-5.710999999999999e-06,0.00020899999999999998
-5.706999999999999e-06,-0.0022700000000000003
-5.7029999999999994e-06,-0.0033420000000000004
-5.698999999999999e-06,-0.0016
-5.694999999999999e-06,0.000812
-5.690999999999999e-06,0.001214
-5.686999999999999e-06,-0.00093
-5.683e-06,-0.0031410000000000006
-5.678999999999999e-06,-0.002873
-5.674999999999999e-06,-0.00046100000000000004
-5.6709999999999996e-06,0.0014149999999999998
-5.666999999999999e-06,0.000477
-5.662999999999999e-06,-0.002136
-5.6589999999999995e-06,-0.003476
-5.654999999999999e-06,-0.001935
-5.650999999999999e-06,0.000611
-5.6469999999999995e-06,0.001348
-5.642999999999999e-06,-0.000729
-5.638999999999999e-06,-0.0031410000000000006
-5.634999999999999e-06,-0.0031410000000000006
-5.630999999999999e-06,-0.000729
-5.626999999999999e-06,0.0014149999999999998
-5.622999999999999e-06,0.000678
-5.618999999999999e-06,-0.001935
-5.615e-06,-0.003543
-5.610999999999999e-06,-0.002203
-5.606999999999999e-06,0.000477
-5.6029999999999995e-06,0.0015490000000000002
-5.598999999999999e-06,-0.00046100000000000004
-5.594999999999999e-06,-0.003007
-5.5909999999999995e-06,-0.0033420000000000004
-5.586999999999999e-06,-0.00093
-5.582999999999999e-06,0.001348
-5.5789999999999994e-06,0.000946
-5.574999999999999e-06,-0.001734
-5.570999999999999e-06,-0.0036100000000000004
-5.566999999999999e-06,-0.002404
-5.562999999999999e-06,0.000343
-5.558999999999999e-06,0.001616
-5.554999999999999e-06,-0.00019300000000000003
-5.550999999999999e-06,-0.00294
-5.5469999999999996e-06,-0.003543
-5.542999999999999e-06,-0.001131
-5.538999999999999e-06,0.001348
-5.5349999999999995e-06,0.0011469999999999998
-5.530999999999999e-06,-0.001533
-5.526999999999999e-06,-0.0036770000000000006
-5.5229999999999995e-06,-0.002605
-5.518999999999999e-06,0.00020899999999999998
-5.514999999999999e-06,0.00175
-5.510999999999999e-06,7.999999999999978e-06
-5.506999999999999e-06,-0.002873
-5.502999999999999e-06,-0.0036100000000000004
-5.498999999999999e-06,-0.001332
-5.494999999999999e-06,0.001348
-5.491e-06,0.0012810000000000002
-5.486999999999999e-06,-0.001466
-5.482999999999999e-06,-0.003744
-5.4789999999999995e-06,-0.002873
-5.474999999999999e-06,7.499999999999998e-05
-5.470999999999999e-06,0.00175
-5.4669999999999995e-06,0.00014199999999999998
-5.462999999999999e-06,-0.0028060000000000003
-5.458999999999999e-06,-0.003811
-5.4549999999999994e-06,-0.001466
-5.450999999999999e-06,0.0012810000000000002
-5.446999999999999e-06,0.0014149999999999998
-5.442999999999999e-06,-0.001265
-5.438999999999999e-06,-0.003744
-5.434999999999999e-06,-0.003007
-5.430999999999999e-06,7.999999999999978e-06
-5.426999999999999e-06,0.0018170000000000003
-5.423e-06,0.000276
-5.418999999999999e-06,-0.0028060000000000003
-5.414999999999999e-06,-0.0038780000000000004
-5.4109999999999995e-06,-0.0016
-5.406999999999999e-06,0.001348
-5.402999999999999e-06,0.0015490000000000002
-5.3989999999999995e-06,-0.001265
-5.394999999999999e-06,-0.003811
-5.390999999999999e-06,-0.0031410000000000006
-5.386999999999999e-06,-5.9000000000000025e-05
-5.382999999999999e-06,0.0019509999999999998
-5.378999999999999e-06,0.00041
-5.374999999999999e-06,-0.0028060000000000003
-5.370999999999999e-06,-0.004012
-5.367e-06,-0.001667
-5.362999999999999e-06,0.001348
-5.358999999999999e-06,0.001616
-5.3549999999999996e-06,-0.001198
-5.350999999999999e-06,-0.0038780000000000004
-5.346999999999999e-06,-0.003208
-5.3429999999999995e-06,-5.9000000000000025e-05
-5.338999999999999e-06,0.002018
-5.334999999999999e-06,0.00041
-5.3309999999999994e-06,-0.002873
-5.326999999999999e-06,-0.004079
-5.322999999999999e-06,-0.001667
-5.318999999999999e-06,0.0014149999999999998
-5.314999999999999e-06,0.0016829999999999998
-5.310999999999999e-06,-0.001265
-5.306999999999999e-06,-0.004012
-5.302999999999999e-06,-0.003275
-5.299e-06,-5.9000000000000025e-05
-5.294999999999999e-06,0.002085
-5.290999999999999e-06,0.00041
-5.2869999999999995e-06,-0.00294
-5.282999999999999e-06,-0.004146
-5.278999999999999e-06,-0.001667
-5.2749999999999995e-06,0.001482
-5.270999999999999e-06,0.0016829999999999998
-5.266999999999999e-06,-0.001332
-5.262999999999999e-06,-0.004079
-5.258999999999999e-06,-0.003275
-5.254999999999999e-06,7.499999999999998e-05
-5.250999999999999e-06,0.0021520000000000003
-5.246999999999999e-06,0.00041
-5.243e-06,-0.0030740000000000003
-5.238999999999999e-06,-0.004213000000000001
-5.234999999999999e-06,-0.0016
-5.2309999999999996e-06,0.001616
-5.226999999999999e-06,0.00175
-5.222999999999999e-06,-0.001399
-5.2189999999999995e-06,-0.004213000000000001
-5.214999999999999e-06,-0.003275
-5.210999999999999e-06,0.00020899999999999998
-5.2069999999999994e-06,0.0022189999999999996
-5.202999999999999e-06,0.000276
-5.198999999999999e-06,-0.003208
-5.194999999999999e-06,-0.00428
-5.190999999999999e-06,-0.001533
-5.186999999999999e-06,0.00175
-5.182999999999999e-06,0.0016829999999999998
-5.178999999999999e-06,-0.0016
-5.175e-06,-0.004347
-5.170999999999999e-06,-0.003208
-5.166999999999999e-06,0.000343
-5.1629999999999995e-06,0.002286
-5.158999999999999e-06,0.00014199999999999998
-5.154999999999999e-06,-0.003476
-5.1509999999999995e-06,-0.004347
-5.146999999999999e-06,-0.001332
-5.142999999999999e-06,0.001884
-5.138999999999999e-06,0.001616
-5.134999999999999e-06,-0.001801
-5.130999999999999e-06,-0.004481000000000001
-5.126999999999999e-06,-0.0030740000000000003
-5.122999999999999e-06,0.000611
-5.118999999999999e-06,0.002353
-5.114999999999999e-06,-5.9000000000000025e-05
-5.110999999999999e-06,-0.003744
-5.1069999999999996e-06,-0.004347
-5.102999999999999e-06,-0.001131
-5.098999999999999e-06,0.002085
-5.0949999999999995e-06,0.0015490000000000002
-5.090999999999999e-06,-0.002136
-5.086999999999999e-06,-0.004615
-5.0829999999999994e-06,-0.00294
-5.078999999999999e-06,0.000879
-5.074999999999999e-06,0.002353
-5.070999999999999e-06,-0.00032700000000000003
-5.066999999999999e-06,-0.003945000000000001
-5.062999999999999e-06,-0.00428
-5.058999999999999e-06,-0.000863
-5.054999999999999e-06,0.002286
-5.051e-06,0.001348
-5.046999999999999e-06,-0.002471
-5.042999999999999e-06,-0.004749000000000001
-5.0389999999999995e-06,-0.002672
-5.034999999999999e-06,0.001214
-5.030999999999999e-06,0.0024200000000000003
-5.0269999999999995e-06,-0.000662
-5.022999999999999e-06,-0.004213000000000001
-5.018999999999999e-06,-0.004146
-5.014999999999999e-06,-0.000528
-5.010999999999999e-06,0.0024200000000000003
-5.006999999999999e-06,0.00108
-5.002999999999999e-06,-0.002873
-4.998999999999999e-06,-0.004816
-4.994999999999999e-06,-0.002337
-4.990999999999999e-06,0.0015490000000000002
-4.986999999999999e-06,0.002286
-4.9829999999999996e-06,-0.000997
-4.978999999999999e-06,-0.004481000000000001
-4.974999999999999e-06,-0.003945000000000001
-4.9709999999999995e-06,-5.9000000000000025e-05
-4.966999999999999e-06,0.002621
-4.962999999999999e-06,0.000745
-4.9589999999999994e-06,-0.0033420000000000004
-4.954999999999999e-06,-0.004816
-4.950999999999999e-06,-0.001868
-4.946999999999999e-06,0.0019509999999999998
-4.942999999999999e-06,0.0021520000000000003
-4.938999999999999e-06,-0.001533
-4.934999999999999e-06,-0.004816
-4.930999999999999e-06,-0.0036770000000000006
-4.927e-06,0.00041
-4.922999999999999e-06,0.0026880000000000003
-4.918999999999999e-06,0.000276
-4.9149999999999995e-06,-0.003811
-4.910999999999999e-06,-0.004749000000000001
-4.906999999999999e-06,-0.001399
-4.9029999999999995e-06,0.002286
-4.898999999999999e-06,0.001884
-4.894999999999999e-06,-0.002069
-4.890999999999999e-06,-0.005017000000000001
-4.886999999999999e-06,-0.003275
-4.882999999999999e-06,0.000946
-4.878999999999999e-06,0.0026880000000000003
-4.874999999999999e-06,-0.00019300000000000003
-4.870999999999999e-06,-0.004213000000000001
-4.866999999999999e-06,-0.004615
-4.862999999999999e-06,-0.000863
-4.8589999999999996e-06,0.002621
-4.854999999999999e-06,0.0015490000000000002
-4.850999999999999e-06,-0.002739
-4.8469999999999995e-06,-0.005151
-4.842999999999999e-06,-0.002739
-4.838999999999999e-06,0.0015490000000000002
-4.8349999999999994e-06,0.002621
-4.830999999999999e-06,-0.000863
-4.826999999999999e-06,-0.004682
-4.822999999999999e-06,-0.00428
-4.818999999999999e-06,-0.00019300000000000003
-4.814999999999999e-06,0.002822
-4.810999999999999e-06,0.001013
-4.806999999999999e-06,-0.0034090000000000006
-4.802999999999999e-06,-0.005151
-4.798999999999999e-06,-0.002069
-4.794999999999999e-06,0.002085
-4.7909999999999995e-06,0.002353
-4.786999999999999e-06,-0.0016
-4.782999999999999e-06,-0.005084
-4.7789999999999995e-06,-0.0038780000000000004
-4.774999999999999e-06,0.000544
-4.770999999999999e-06,0.002889
-4.766999999999999e-06,0.000343
-4.762999999999999e-06,-0.004079
-4.758999999999999e-06,-0.005017000000000001
-4.754999999999999e-06,-0.001265
-4.750999999999999e-06,0.002554
-4.746999999999999e-06,0.002018
-4.742999999999999e-06,-0.002337
-4.738999999999999e-06,-0.005285000000000001
-4.7349999999999996e-06,-0.003208
-4.730999999999999e-06,0.001348
-4.726999999999999e-06,0.002889
-4.7229999999999995e-06,-0.00046100000000000004
-4.718999999999999e-06,-0.004682
-4.714999999999999e-06,-0.004682
-4.7109999999999994e-06,-0.000528
-4.706999999999999e-06,0.002889
-4.702999999999999e-06,0.001348
-4.698999999999999e-06,-0.003275
-4.694999999999999e-06,-0.005419
-4.690999999999999e-06,-0.002404
-4.686999999999999e-06,0.002018
-4.682999999999999e-06,0.0026880000000000003
-4.678999999999999e-06,-0.001332
-4.674999999999999e-06,-0.005151
-4.670999999999999e-06,-0.004213000000000001
-4.6669999999999995e-06,0.00041
-4.662999999999999e-06,0.00309
-4.658999999999999e-06,0.000544
-4.6549999999999995e-06,-0.004079
-4.650999999999999e-06,-0.005218
-4.646999999999999e-06,-0.001466
-4.642999999999999e-06,0.002621
-4.638999999999999e-06,0.0021520000000000003
-4.634999999999999e-06,-0.002337
-4.630999999999999e-06,-0.005486
-4.626999999999999e-06,-0.0034090000000000006
-4.622999999999999e-06,0.001348
-4.618999999999999e-06,0.0030229999999999996
-4.614999999999999e-06,-0.00046100000000000004
-4.6109999999999996e-06,-0.004883
-4.606999999999999e-06,-0.004883
-4.602999999999999e-06,-0.00046100000000000004
-4.5989999999999995e-06,0.00309
-4.594999999999999e-06,0.0014149999999999998
-4.590999999999999e-06,-0.0034090000000000006
-4.5869999999999995e-06,-0.005553000000000001
-4.582999999999999e-06,-0.002404
-4.578999999999999e-06,0.0022189999999999996
-4.574999999999999e-06,0.0027549999999999996
-4.570999999999999e-06,-0.001466
-4.566999999999999e-06,-0.005419
-4.562999999999999e-06,-0.004213000000000001
-4.558999999999999e-06,0.000611
-4.554999999999999e-06,0.0032909999999999997
-4.550999999999999e-06,0.00041
-4.546999999999999e-06,-0.004414
-4.5429999999999995e-06,-0.005352000000000001
-4.538999999999999e-06,-0.001198
-4.534999999999999e-06,0.0029560000000000003
-4.5309999999999995e-06,0.0021520000000000003
-4.526999999999999e-06,-0.002672
-4.522999999999999e-06,-0.005687
-4.5189999999999994e-06,-0.003208
-4.514999999999999e-06,0.00175
-4.510999999999999e-06,0.00309
-4.506999999999999e-06,-0.000863
-4.502999999999999e-06,-0.005218
-4.498999999999999e-06,-0.004816
-4.494999999999999e-06,-5.9000000000000025e-05
-4.490999999999999e-06,0.0032909999999999997
-4.4869999999999996e-06,0.00108
-4.482999999999999e-06,-0.003945000000000001
-4.478999999999999e-06,-0.005687
-4.4749999999999995e-06,-0.001935
-4.470999999999999e-06,0.002621
-4.466999999999999e-06,0.002554
-4.4629999999999995e-06,-0.002136
-4.458999999999999e-06,-0.0057540000000000004
-4.454999999999999e-06,-0.003811
-4.450999999999999e-06,0.0012810000000000002
-4.446999999999999e-06,0.003425
-4.442999999999999e-06,-0.00019300000000000003
-4.438999999999999e-06,-0.00495
-4.434999999999999e-06,-0.005218
-4.430999999999999e-06,-0.000595
-4.426999999999999e-06,0.0032909999999999997
-4.422999999999999e-06,0.001616
-4.4189999999999995e-06,-0.003543
-4.414999999999999e-06,-0.005888000000000001
-4.410999999999999e-06,-0.0025380000000000003
-4.4069999999999995e-06,0.0024200000000000003
-4.402999999999999e-06,0.0029560000000000003
-4.398999999999999e-06,-0.0016
-4.3949999999999994e-06,-0.0057540000000000004
-4.390999999999999e-06,-0.004347
-4.386999999999999e-06,0.000812
-4.382999999999999e-06,0.0034920000000000003
-4.378999999999999e-06,0.000276
-4.374999999999999e-06,-0.004749000000000001
-4.370999999999999e-06,-0.005486
-4.366999999999999e-06,-0.000997
-4.362999999999999e-06,0.0032239999999999994
-4.358999999999999e-06,0.002018
-4.354999999999999e-06,-0.0031410000000000006
-4.3509999999999995e-06,-0.0060220000000000004
-4.346999999999999e-06,-0.00294
-4.342999999999999e-06,0.0022189999999999996
-4.3389999999999995e-06,0.0032239999999999994
-4.334999999999999e-06,-0.001198
-4.330999999999999e-06,-0.005687
-4.326999999999999e-06,-0.004615
-4.322999999999999e-06,0.000544
-4.318999999999999e-06,0.0035589999999999997
-4.314999999999999e-06,0.000611
-4.310999999999999e-06,-0.004615
-4.306999999999999e-06,-0.0057540000000000004
-4.302999999999999e-06,-0.001332
-4.298999999999999e-06,0.003157
-4.2949999999999995e-06,0.002286
-4.290999999999999e-06,-0.00294
-4.286999999999999e-06,-0.006156
-4.2829999999999995e-06,-0.0033420000000000004
-4.278999999999999e-06,0.002018
-4.274999999999999e-06,0.003358
-4.2709999999999994e-06,-0.000997
-4.266999999999999e-06,-0.005687
-4.262999999999999e-06,-0.004883
-4.258999999999999e-06,0.000343
-4.254999999999999e-06,0.003626
-4.250999999999999e-06,0.000879
-4.246999999999999e-06,-0.004548
-4.242999999999999e-06,-0.005955
-4.238999999999999e-06,-0.001533
-4.234999999999999e-06,0.003157
-4.230999999999999e-06,0.0024869999999999996
-4.2269999999999995e-06,-0.002873
-4.222999999999999e-06,-0.006223
-4.218999999999999e-06,-0.0034090000000000006
-4.2149999999999995e-06,0.002018
-4.210999999999999e-06,0.0034920000000000003
-4.206999999999999e-06,-0.00093
-4.202999999999999e-06,-0.0057540000000000004
-4.198999999999999e-06,-0.005017000000000001
-4.194999999999999e-06,0.000343
-4.190999999999999e-06,0.0037599999999999995
-4.186999999999999e-06,0.000946
-4.182999999999999e-06,-0.004615
-4.178999999999999e-06,-0.0060220000000000004
-4.174999999999999e-06,-0.001533
-4.1709999999999995e-06,0.0032909999999999997
-4.166999999999999e-06,0.0024869999999999996
-4.162999999999999e-06,-0.00294
-4.1589999999999995e-06,-0.006357000000000001
-4.154999999999999e-06,-0.003476
-4.150999999999999e-06,0.0021520000000000003
-4.1469999999999994e-06,0.0035589999999999997
-4.142999999999999e-06,-0.000997
-4.138999999999999e-06,-0.005888000000000001
-4.134999999999999e-06,-0.005017000000000001
-4.130999999999999e-06,0.000477
-4.126999999999999e-06,0.003894
-4.122999999999999e-06,0.000879
-4.118999999999999e-06,-0.004749000000000001
-4.114999999999999e-06,-0.006089000000000001
-4.110999999999999e-06,-0.001332
-4.106999999999999e-06,0.003425
-4.1029999999999995e-06,0.0024869999999999996
-4.098999999999999e-06,-0.0031410000000000006
-4.094999999999999e-06,-0.006424000000000001
-4.0909999999999995e-06,-0.003275
-4.086999999999999e-06,0.002353
-4.082999999999999e-06,0.0035589999999999997
-4.078999999999999e-06,-0.001265
-4.074999999999999e-06,-0.006089000000000001
-4.070999999999999e-06,-0.00495
-4.066999999999999e-06,0.000745
-4.062999999999999e-06,0.003961
-4.058999999999999e-06,0.000611
-4.054999999999999e-06,-0.005084
-4.050999999999999e-06,-0.0060220000000000004
-4.046999999999999e-06,-0.001064
-4.042999999999999e-06,0.003626
-4.038999999999999e-06,0.002286
-4.0349999999999995e-06,-0.003476
-4.030999999999999e-06,-0.006491
-4.026999999999999e-06,-0.00294
-4.0229999999999994e-06,0.0026880000000000003
-4.018999999999999e-06,0.003425
-4.014999999999999e-06,-0.001667
-4.010999999999999e-06,-0.006357000000000001
-4.006999999999999e-06,-0.004682
-4.002999999999999e-06,0.001214
-3.998999999999999e-06,0.004028
-3.994999999999999e-06,0.00014199999999999998
-3.990999999999999e-06,-0.005419
-3.986999999999999e-06,-0.005888000000000001
-3.982999999999999e-06,-0.000662
-3.9789999999999995e-06,0.003894
-3.974999999999999e-06,0.001884
-3.970999999999999e-06,-0.004079
-3.9669999999999995e-06,-0.0065580000000000005
-3.962999999999999e-06,-0.002404
-3.958999999999999e-06,0.00309
-3.954999999999999e-06,0.0032239999999999994
-3.950999999999999e-06,-0.0022700000000000003
-3.946999999999999e-06,-0.0065580000000000005
-3.942999999999999e-06,-0.004213000000000001
-3.938999999999999e-06,0.0018170000000000003
-3.934999999999999e-06,0.003961
-3.930999999999999e-06,-0.00046100000000000004
-3.926999999999999e-06,-0.005888000000000001
-3.922999999999999e-06,-0.00562
-3.918999999999999e-06,7.499999999999998e-05
-3.914999999999999e-06,0.004095
-3.9109999999999995e-06,0.001348
-3.906999999999999e-06,-0.004749000000000001
-3.902999999999999e-06,-0.006491
-3.8989999999999994e-06,-0.001734
-3.894999999999999e-06,0.0035589999999999997
-3.890999999999999e-06,0.0027549999999999996
-3.886999999999999e-06,-0.0030740000000000003
-3.882999999999999e-06,-0.006759
-3.878999999999999e-06,-0.003543
-3.874999999999999e-06,0.0024200000000000003
-3.870999999999999e-06,0.0038269999999999997
-3.866999999999999e-06,-0.001265
-3.862999999999999e-06,-0.006424000000000001
-3.858999999999999e-06,-0.005084
-3.8549999999999995e-06,0.000946
-3.850999999999999e-06,0.004229
-3.846999999999999e-06,0.000544
-3.8429999999999995e-06,-0.005419
-3.838999999999999e-06,-0.006223
-3.834999999999999e-06,-0.000863
-3.830999999999999e-06,0.003961
-3.826999999999999e-06,0.0021520000000000003
-3.822999999999999e-06,-0.004012
-3.818999999999999e-06,-0.006759
-3.814999999999999e-06,-0.002605
-3.8109999999999987e-06,0.003157
-3.8069999999999993e-06,0.003425
-3.802999999999999e-06,-0.0022700000000000003
-3.7989999999999987e-06,-0.006759
-3.7949999999999992e-06,-0.004347
-3.790999999999999e-06,0.001884
-3.7869999999999995e-06,0.004162
-3.782999999999999e-06,-0.000528
-3.778999999999999e-06,-0.006156
-3.7749999999999994e-06,-0.005687
-3.770999999999999e-06,0.000276
-3.766999999999999e-06,0.0042959999999999995
-3.7629999999999994e-06,0.001214
-3.758999999999999e-06,-0.005017000000000001
-3.7549999999999988e-06,-0.0065580000000000005
-3.7509999999999993e-06,-0.001399
-3.746999999999999e-06,0.003894
-3.7429999999999987e-06,0.0027549999999999996
-3.7389999999999993e-06,-0.003476
-3.734999999999999e-06,-0.006893000000000001
-3.7309999999999987e-06,-0.003208
-3.7269999999999992e-06,0.002889
-3.722999999999999e-06,0.0037599999999999995
-3.7189999999999995e-06,-0.001734
-3.714999999999999e-06,-0.006759
-3.710999999999999e-06,-0.004816
-3.7069999999999994e-06,0.0015490000000000002
-3.702999999999999e-06,0.0042959999999999995
-3.698999999999999e-06,-5.9000000000000025e-05
-3.6949999999999994e-06,-0.0060220000000000004
-3.690999999999999e-06,-0.006089000000000001
-3.6869999999999988e-06,-0.00012600000000000003
-3.6829999999999993e-06,0.004363
-3.678999999999999e-06,0.001616
-3.6749999999999987e-06,-0.004816
-3.6709999999999992e-06,-0.006759
-3.666999999999999e-06,-0.001801
-3.6629999999999995e-06,0.0038269999999999997
-3.658999999999999e-06,0.0030229999999999996
-3.654999999999999e-06,-0.003275
-3.6509999999999994e-06,-0.0070940000000000005
-3.646999999999999e-06,-0.003543
-3.642999999999999e-06,0.0027549999999999996
-3.6389999999999994e-06,0.003961
-3.634999999999999e-06,-0.001533
-3.6309999999999988e-06,-0.006759
-3.6269999999999993e-06,-0.005084
-3.622999999999999e-06,0.0014149999999999998
-3.6189999999999987e-06,0.00443
-3.6149999999999993e-06,0.00014199999999999998
-3.610999999999999e-06,-0.0060220000000000004
-3.6069999999999987e-06,-0.006223
-3.6029999999999992e-06,-0.00026000000000000003
-3.598999999999999e-06,0.004363
-3.5949999999999995e-06,0.00175
-3.590999999999999e-06,-0.004816
-3.586999999999999e-06,-0.006960000000000001
-3.5829999999999994e-06,-0.001868
-3.578999999999999e-06,0.003894
-3.574999999999999e-06,0.00309
-3.5709999999999994e-06,-0.003275
-3.566999999999999e-06,-0.007161000000000001
-3.5629999999999988e-06,-0.003543
-3.5589999999999993e-06,0.002889
-3.554999999999999e-06,0.004028
-3.5509999999999987e-06,-0.0016
-3.5469999999999992e-06,-0.006893000000000001
-3.542999999999999e-06,-0.005017000000000001
-3.5389999999999995e-06,0.001616
-3.534999999999999e-06,0.004497
-3.530999999999999e-06,7.999999999999978e-06
-3.5269999999999994e-06,-0.006223
-3.522999999999999e-06,-0.006223
-3.518999999999999e-06,7.999999999999978e-06
-3.5149999999999994e-06,0.004564
-3.510999999999999e-06,0.001616
-3.5069999999999988e-06,-0.005084
-3.5029999999999993e-06,-0.006960000000000001
-3.498999999999999e-06,-0.0016
-3.4949999999999987e-06,0.004095
-3.4909999999999993e-06,0.0029560000000000003
-3.486999999999999e-06,-0.0036770000000000006
-3.4829999999999987e-06,-0.007228
-3.4789999999999992e-06,-0.003275
-3.474999999999999e-06,0.0032239999999999994
-3.4709999999999995e-06,0.003961
-3.466999999999999e-06,-0.002069
-3.462999999999999e-06,-0.0070940000000000005
-3.4589999999999994e-06,-0.004749000000000001
-3.454999999999999e-06,0.002018
-3.450999999999999e-06,0.004564
-3.4469999999999994e-06,-0.000528
-3.442999999999999e-06,-0.0065580000000000005
-3.4389999999999988e-06,-0.0060220000000000004
-3.4349999999999993e-06,0.000544
-3.430999999999999e-06,0.004698
-3.4269999999999987e-06,0.00108
-3.4229999999999992e-06,-0.00562
-3.418999999999999e-06,-0.0068260000000000005
-3.4149999999999995e-06,-0.000997
-3.410999999999999e-06,0.00443
-3.406999999999999e-06,0.0024869999999999996
-3.4029999999999994e-06,-0.004347
-3.398999999999999e-06,-0.007295
-3.394999999999999e-06,-0.002605
-3.3909999999999994e-06,0.0037599999999999995
-3.386999999999999e-06,0.003626
-3.3829999999999988e-06,-0.002873
-3.3789999999999993e-06,-0.0073620000000000005
-3.374999999999999e-06,-0.004146
-3.3709999999999987e-06,0.0026880000000000003
-3.3669999999999993e-06,0.004363
-3.362999999999999e-06,-0.001265
-3.3589999999999987e-06,-0.007027
-3.3549999999999992e-06,-0.005419
-3.350999999999999e-06,0.0014149999999999998
-3.3469999999999995e-06,0.004765
-3.342999999999999e-06,0.000276
-3.338999999999999e-06,-0.0062900000000000005
-3.3349999999999994e-06,-0.006424000000000001
-3.330999999999999e-06,-5.9000000000000025e-05
-3.326999999999999e-06,0.004765
-3.3229999999999994e-06,0.00175
-3.318999999999999e-06,-0.005218
-3.3149999999999988e-06,-0.007161000000000001
-3.3109999999999993e-06,-0.001533
-3.306999999999999e-06,0.004363
-3.3029999999999987e-06,0.0029560000000000003
-3.2989999999999992e-06,-0.003945000000000001
-3.294999999999999e-06,-0.007496000000000001
-3.2909999999999986e-06,-0.0030740000000000003
-3.286999999999999e-06,0.0035589999999999997
-3.282999999999999e-06,0.003961
-3.2789999999999994e-06,-0.002471
-3.274999999999999e-06,-0.007429000000000001
-3.270999999999999e-06,-0.004548
-3.2669999999999994e-06,0.0024869999999999996
-3.262999999999999e-06,0.004564
-3.2589999999999988e-06,-0.000997
-3.2549999999999993e-06,-0.007027
-3.250999999999999e-06,-0.0057540000000000004
-3.2469999999999987e-06,0.001214
-3.2429999999999993e-06,0.004899
-3.238999999999999e-06,0.000477
-3.2349999999999987e-06,-0.0062900000000000005
-3.2309999999999992e-06,-0.006625000000000001
-3.226999999999999e-06,-0.00019300000000000003
-3.2229999999999995e-06,0.0048319999999999995
-3.218999999999999e-06,0.001884
-3.214999999999999e-06,-0.005218
-3.2109999999999994e-06,-0.007295
-3.206999999999999e-06,-0.0016
-3.202999999999999e-06,0.00443
-3.1989999999999994e-06,0.0030229999999999996
-3.194999999999999e-06,-0.004012
-3.1909999999999988e-06,-0.0076300000000000005
-3.1869999999999993e-06,-0.0030740000000000003
-3.182999999999999e-06,0.003693
-3.1789999999999987e-06,0.004028
-3.1749999999999992e-06,-0.002605
-3.170999999999999e-06,-0.007563
-3.1669999999999986e-06,-0.004414
-3.162999999999999e-06,0.0026880000000000003
-3.158999999999999e-06,0.004631
-3.1549999999999994e-06,-0.001198
-3.150999999999999e-06,-0.007228
-3.146999999999999e-06,-0.00562
-3.1429999999999994e-06,0.0015490000000000002
-3.138999999999999e-06,0.004966
-3.1349999999999988e-06,0.00020899999999999998
-3.1309999999999993e-06,-0.0065580000000000005
-3.126999999999999e-06,-0.0065580000000000005
-3.1229999999999987e-06,0.00014199999999999998
-3.1189999999999993e-06,0.004966
-3.114999999999999e-06,0.0015490000000000002
-3.1109999999999987e-06,-0.005687
-3.1069999999999992e-06,-0.007295
-3.102999999999999e-06,-0.001131
-3.0989999999999995e-06,0.004698
-3.094999999999999e-06,0.0026880000000000003
-3.090999999999999e-06,-0.004548
-3.0869999999999994e-06,-0.007697000000000001
-3.082999999999999e-06,-0.0025380000000000003
-3.078999999999999e-06,0.004162
-3.0749999999999994e-06,0.003693
-3.070999999999999e-06,-0.003275
-3.0669999999999988e-06,-0.007764
-3.0629999999999993e-06,-0.0038780000000000004
-3.058999999999999e-06,0.0032909999999999997
-3.0549999999999987e-06,0.00443
-3.0509999999999992e-06,-0.001935
-3.046999999999999e-06,-0.0076300000000000005
-3.0429999999999986e-06,-0.005084
-3.038999999999999e-06,0.002286
-3.034999999999999e-06,0.004899
-3.0309999999999994e-06,-0.000662
-3.026999999999999e-06,-0.007161000000000001
-3.022999999999999e-06,-0.006089000000000001
-3.0189999999999994e-06,0.00108
-3.014999999999999e-06,0.0051
-3.0109999999999988e-06,0.000611
-3.0069999999999993e-06,-0.006424000000000001
-3.002999999999999e-06,-0.006960000000000001
-2.9989999999999987e-06,-0.00019300000000000003
-2.9949999999999993e-06,0.0051
-2.990999999999999e-06,0.001884
-2.9869999999999987e-06,-0.005553000000000001
-2.9829999999999992e-06,-0.007496000000000001
-2.978999999999999e-06,-0.001399
-2.9749999999999986e-06,0.004765
-2.970999999999999e-06,0.0029560000000000003
-2.966999999999999e-06,-0.004481000000000001
-2.9629999999999994e-06,-0.007831
-2.958999999999999e-06,-0.002739
-2.954999999999999e-06,0.004162
-2.9509999999999994e-06,0.0038269999999999997
-2.946999999999999e-06,-0.0033420000000000004
-2.9429999999999988e-06,-0.007898
-2.9389999999999993e-06,-0.004012
-2.934999999999999e-06,0.003358
-2.9309999999999987e-06,0.004564
-2.9269999999999993e-06,-0.002069
-2.922999999999999e-06,-0.007764
-2.9189999999999986e-06,-0.005084
-2.914999999999999e-06,0.0024200000000000003
-2.910999999999999e-06,0.004966
-2.9069999999999994e-06,-0.000863
-2.902999999999999e-06,-0.0073620000000000005
-2.898999999999999e-06,-0.006089000000000001
-2.8949999999999994e-06,0.0014149999999999998
-2.890999999999999e-06,0.005234
-2.8869999999999988e-06,0.000343
-2.8829999999999993e-06,-0.006759
-2.878999999999999e-06,-0.0068260000000000005
-2.8749999999999987e-06,0.00020899999999999998
-2.8709999999999993e-06,0.005234
-2.866999999999999e-06,0.0015490000000000002
-2.8629999999999987e-06,-0.0060220000000000004
-2.8589999999999992e-06,-0.007429000000000001
-2.854999999999999e-06,-0.00093
-2.8509999999999986e-06,0.004966
-2.846999999999999e-06,0.002554
-2.842999999999999e-06,-0.005084
-2.8389999999999994e-06,-0.007831
-2.834999999999999e-06,-0.002069
-2.830999999999999e-06,0.004564
-2.8269999999999994e-06,0.003425
-2.822999999999999e-06,-0.004079
-2.8189999999999988e-06,-0.008032000000000001
-2.8149999999999993e-06,-0.003275
-2.810999999999999e-06,0.004028
-2.8069999999999987e-06,0.004229
-2.8029999999999993e-06,-0.00294
-2.798999999999999e-06,-0.008032000000000001
-2.7949999999999987e-06,-0.004347
-2.790999999999999e-06,0.0032239999999999994
-2.786999999999999e-06,0.004765
-2.7829999999999994e-06,-0.001801
-2.778999999999999e-06,-0.007831
-2.774999999999999e-06,-0.005352000000000001
-2.7709999999999994e-06,0.002286
-2.766999999999999e-06,0.0051
-2.7629999999999988e-06,-0.000796
-2.7589999999999993e-06,-0.007496000000000001
-2.754999999999999e-06,-0.006223
-2.7509999999999987e-06,0.001348
-2.7469999999999993e-06,0.005234
-2.742999999999999e-06,0.000343
-2.7389999999999987e-06,-0.006893000000000001
-2.7349999999999992e-06,-0.006893000000000001
-2.730999999999999e-06,0.000343
-2.7269999999999986e-06,0.005301
-2.722999999999999e-06,0.001348
-2.718999999999999e-06,-0.006223
-2.7149999999999994e-06,-0.007429000000000001
-2.710999999999999e-06,-0.000729
-2.706999999999999e-06,0.005167
-2.7029999999999994e-06,0.002353
-2.698999999999999e-06,-0.005419
-2.6949999999999988e-06,-0.007831
-2.6909999999999993e-06,-0.001667
-2.686999999999999e-06,0.0048319999999999995
-2.6829999999999987e-06,0.003157
-2.6789999999999993e-06,-0.004548
-2.674999999999999e-06,-0.008099
-2.6709999999999987e-06,-0.002739
-2.666999999999999e-06,0.004363
-2.662999999999999e-06,0.0038269999999999997
-2.6589999999999994e-06,-0.0036770000000000006
-2.654999999999999e-06,-0.008166
-2.650999999999999e-06,-0.003744
-2.6469999999999994e-06,0.0038269999999999997
-2.642999999999999e-06,0.00443
-2.638999999999999e-06,-0.002672
-2.6349999999999993e-06,-0.008099
-2.630999999999999e-06,-0.004615
-2.6269999999999987e-06,0.00309
-2.6229999999999993e-06,0.004899
-2.618999999999999e-06,-0.001667
-2.6149999999999987e-06,-0.007898
-2.6109999999999992e-06,-0.005486
-2.606999999999999e-06,0.002353
-2.6029999999999986e-06,0.005167
-2.598999999999999e-06,-0.000796
-2.594999999999999e-06,-0.007563
-2.5909999999999994e-06,-0.006223
-2.586999999999999e-06,0.0015490000000000002
-2.582999999999999e-06,0.0053679999999999995
-2.5789999999999994e-06,0.00014199999999999998
-2.574999999999999e-06,-0.007161000000000001
-2.5709999999999988e-06,-0.0068260000000000005
-2.5669999999999993e-06,0.000611
-2.562999999999999e-06,0.0053679999999999995
-2.5589999999999987e-06,0.001013
-2.5549999999999993e-06,-0.006625000000000001
-2.550999999999999e-06,-0.0073620000000000005
-2.5469999999999987e-06,-0.00026000000000000003
-2.542999999999999e-06,0.005301
-2.538999999999999e-06,0.001884
-2.5349999999999986e-06,-0.005955
-2.530999999999999e-06,-0.007697000000000001
-2.526999999999999e-06,-0.000997
-2.5229999999999994e-06,0.005167
-2.518999999999999e-06,0.002621
-2.514999999999999e-06,-0.005285000000000001
-2.5109999999999993e-06,-0.007965
-2.506999999999999e-06,-0.001868
-2.5029999999999987e-06,0.0048319999999999995
-2.4989999999999993e-06,0.0032909999999999997
-2.494999999999999e-06,-0.004548
-2.4909999999999987e-06,-0.008166
-2.4869999999999992e-06,-0.002739
-2.482999999999999e-06,0.00443
-2.4789999999999986e-06,0.003894
-2.474999999999999e-06,-0.003811
-2.470999999999999e-06,-0.0083
-2.4669999999999994e-06,-0.0036100000000000004
-2.462999999999999e-06,0.003961
-2.458999999999999e-06,0.004363
-2.4549999999999994e-06,-0.003007
-2.450999999999999e-06,-0.008233
-2.4469999999999988e-06,-0.004347
-2.4429999999999993e-06,0.0034920000000000003
-2.438999999999999e-06,0.004765
-2.4349999999999987e-06,-0.002203
-2.4309999999999993e-06,-0.008099
-2.426999999999999e-06,-0.005017000000000001
-2.4229999999999987e-06,0.002889
-2.418999999999999e-06,0.005033
-2.414999999999999e-06,-0.001466
-2.4109999999999986e-06,-0.007898
-2.406999999999999e-06,-0.005687
-2.402999999999999e-06,0.002286
-2.3989999999999994e-06,0.005234
-2.394999999999999e-06,-0.000729
-2.390999999999999e-06,-0.0076300000000000005
-2.3869999999999993e-06,-0.006223
-2.382999999999999e-06,0.001616
-2.3789999999999987e-06,0.005435
-2.3749999999999993e-06,-5.9000000000000025e-05
-2.370999999999999e-06,-0.0073620000000000005
-2.3669999999999987e-06,-0.006759
-2.3629999999999992e-06,0.000946
-2.358999999999999e-06,0.005435
-2.3549999999999986e-06,0.000678
-2.350999999999999e-06,-0.006893000000000001
-2.346999999999999e-06,-0.007161000000000001
-2.3429999999999994e-06,0.000276
-2.338999999999999e-06,0.005435
-2.334999999999999e-06,0.001348
-2.3309999999999994e-06,-0.006491
-2.326999999999999e-06,-0.007563
-2.3229999999999988e-06,-0.00039400000000000004
-2.3189999999999993e-06,0.0053679999999999995
-2.314999999999999e-06,0.0019509999999999998
-2.3109999999999987e-06,-0.0060220000000000004
-2.3069999999999993e-06,-0.007831
-2.302999999999999e-06,-0.000997
-2.2989999999999987e-06,0.005167
-2.294999999999999e-06,0.0024869999999999996
-2.290999999999999e-06,-0.005553000000000001
-2.2869999999999986e-06,-0.008032000000000001
-2.282999999999999e-06,-0.0016
-2.278999999999999e-06,0.005033
-2.2749999999999994e-06,0.0030229999999999996
-2.270999999999999e-06,-0.005017000000000001
-2.266999999999999e-06,-0.008166
-2.2629999999999993e-06,-0.002203
-2.258999999999999e-06,0.004765
-2.2549999999999987e-06,0.003425
-2.2509999999999993e-06,-0.004481000000000001
-2.246999999999999e-06,-0.0083
-2.2429999999999987e-06,-0.0028060000000000003
-2.2389999999999984e-06,0.004497
-2.2349999999999998e-06,0.0038269999999999997
-2.2309999999999995e-06,-0.004012
-2.226999999999999e-06,-0.008367
-2.222999999999999e-06,-0.0034090000000000006
-2.2189999999999986e-06,0.004162
-2.2149999999999983e-06,0.004162
-2.2109999999999997e-06,-0.0034090000000000006
-2.2069999999999994e-06,-0.008367
-2.202999999999999e-06,-0.003945000000000001
-2.1989999999999988e-06,0.0038269999999999997
-2.1949999999999985e-06,0.004497
-2.190999999999998e-06,-0.002873
-2.1869999999999996e-06,-0.0083
-2.1829999999999993e-06,-0.004414
-2.178999999999999e-06,0.0034920000000000003
-2.1749999999999987e-06,0.004698
-2.1709999999999984e-06,-0.002404
-2.1669999999999998e-06,-0.008233
-2.1629999999999995e-06,-0.004883
-2.158999999999999e-06,0.00309
-2.154999999999999e-06,0.004966
-2.1509999999999985e-06,-0.001868
-2.1469999999999982e-06,-0.008099
-2.1429999999999996e-06,-0.005285000000000001
-2.1389999999999993e-06,0.0027549999999999996
-2.134999999999999e-06,0.0051
-2.1309999999999987e-06,-0.001399
-2.1269999999999984e-06,-0.007965
-2.123e-06,-0.005687
-2.1189999999999995e-06,0.002353
-2.1149999999999992e-06,0.005234
-2.110999999999999e-06,-0.000997
-2.1069999999999986e-06,-0.007831
-2.1029999999999983e-06,-0.0060220000000000004
-2.0989999999999997e-06,0.0019509999999999998
-2.0949999999999994e-06,0.005301
-2.090999999999999e-06,-0.000662
-2.086999999999999e-06,-0.0076300000000000005
-2.0829999999999985e-06,-0.0062900000000000005
-2.0789999999999982e-06,0.001616
-2.0749999999999996e-06,0.0053679999999999995
-2.0709999999999993e-06,-0.00019300000000000003
-2.066999999999999e-06,-0.007429000000000001
-2.0629999999999987e-06,-0.0065580000000000005
-2.0589999999999984e-06,0.0012810000000000002
-2.055e-06,0.0053679999999999995
-2.0509999999999995e-06,0.00014199999999999998
-2.046999999999999e-06,-0.007228
-2.042999999999999e-06,-0.0068260000000000005
-2.0389999999999986e-06,0.000879
-2.0349999999999983e-06,0.005435
-2.0309999999999997e-06,0.000477
-2.0269999999999994e-06,-0.0070940000000000005
-2.022999999999999e-06,-0.007027
-2.018999999999999e-06,0.000544
-2.0149999999999985e-06,0.005435
-2.010999999999998e-06,0.000879
-2.0069999999999996e-06,-0.0068260000000000005
-2.0029999999999993e-06,-0.007228
-1.998999999999999e-06,0.00020899999999999998
-1.9949999999999987e-06,0.0053679999999999995
-1.9909999999999984e-06,0.0011469999999999998
-1.9869999999999998e-06,-0.006692
-1.9829999999999995e-06,-0.007429000000000001
-1.978999999999999e-06,-5.9000000000000025e-05
-1.974999999999999e-06,0.0053679999999999995
-1.9709999999999986e-06,0.0014149999999999998
-1.9669999999999983e-06,-0.006491
-1.9629999999999997e-06,-0.007563
-1.9589999999999994e-06,-0.00039400000000000004
-1.954999999999999e-06,0.005301
-1.9509999999999988e-06,0.0016829999999999998
-1.9469999999999985e-06,-0.0062900000000000005
-1.942999999999998e-06,-0.0076300000000000005
-1.9389999999999996e-06,-0.000595
-1.9349999999999993e-06,0.005234
-1.930999999999999e-06,0.001884
-1.9269999999999987e-06,-0.006089000000000001
-1.9229999999999984e-06,-0.007764
-1.9189999999999998e-06,-0.000863
-1.9149999999999995e-06,0.005234
-1.910999999999999e-06,0.002085
-1.9069999999999989e-06,-0.005955
-1.9029999999999986e-06,-0.007831
-1.8989999999999983e-06,-0.000997
-1.8949999999999996e-06,0.0051
-1.8909999999999993e-06,0.0022189999999999996
-1.886999999999999e-06,-0.0057540000000000004
-1.8829999999999987e-06,-0.007898
-1.8789999999999984e-06,-0.001198
-1.8749999999999981e-06,0.0051
-1.8709999999999995e-06,0.0024200000000000003
-1.8669999999999992e-06,-0.00562
-1.862999999999999e-06,-0.007965
-1.8589999999999986e-06,-0.001399
-1.8549999999999983e-06,0.004966
-1.8509999999999997e-06,0.002554
-1.8469999999999994e-06,-0.005486
-1.8429999999999991e-06,-0.007965
-1.8389999999999988e-06,-0.001533
-1.8349999999999985e-06,0.004966
-1.8309999999999982e-06,0.0026880000000000003
-1.8269999999999996e-06,-0.005352000000000001
-1.8229999999999993e-06,-0.008032000000000001
-1.818999999999999e-06,-0.001667
-1.8149999999999987e-06,0.004899
-1.8109999999999984e-06,0.0027549999999999996
-1.8069999999999998e-06,-0.005218
-1.8029999999999995e-06,-0.008032000000000001
-1.7989999999999992e-06,-0.001801
-1.794999999999999e-06,0.0048319999999999995
-1.7909999999999986e-06,0.002822
-1.7869999999999983e-06,-0.005151
-1.7829999999999997e-06,-0.008032000000000001
-1.7789999999999994e-06,-0.001868
-1.774999999999999e-06,0.004765
-1.7709999999999988e-06,0.002889
-1.7669999999999985e-06,-0.005084
-1.7629999999999982e-06,-0.008032000000000001
-1.7589999999999996e-06,-0.001935
-1.7549999999999993e-06,0.004765
-1.750999999999999e-06,0.002889
-1.7469999999999987e-06,-0.005017000000000001
-1.7429999999999984e-06,-0.008099
-1.7389999999999998e-06,-0.002069
-1.7349999999999995e-06,0.004698
-1.7309999999999992e-06,0.0029560000000000003
-1.7269999999999989e-06,-0.005017000000000001
-1.7229999999999986e-06,-0.008099
-1.7189999999999983e-06,-0.002069
-1.7149999999999997e-06,0.004631
-1.7109999999999994e-06,0.0029560000000000003
-1.706999999999999e-06,-0.00495
-1.7029999999999988e-06,-0.008032000000000001
-1.6989999999999985e-06,-0.002069
-1.6949999999999982e-06,0.004698
-1.6909999999999996e-06,0.0029560000000000003
-1.6869999999999993e-06,-0.00495
-1.682999999999999e-06,-0.008032000000000001
-1.6789999999999987e-06,-0.002069
-1.6749999999999984e-06,0.004631
-1.6709999999999998e-06,0.002889
-1.6669999999999995e-06,-0.00495
-1.6629999999999992e-06,-0.008032000000000001
-1.6589999999999989e-06,-0.002069
-1.6549999999999986e-06,0.004631
-1.6509999999999983e-06,0.002822
-1.6469999999999996e-06,-0.005017000000000001
-1.6429999999999993e-06,-0.008032000000000001
-1.638999999999999e-06,-0.0020020000000000003
-1.6349999999999987e-06,0.004631
-1.6309999999999984e-06,0.002822
-1.6269999999999981e-06,-0.005084
-1.6229999999999995e-06,-0.008032000000000001
-1.6189999999999992e-06,-0.001935
-1.614999999999999e-06,0.004698
-1.6109999999999986e-06,0.0027549999999999996
-1.6069999999999983e-06,-0.005151
-1.6029999999999997e-06,-0.007965
-1.5989999999999994e-06,-0.001801
-1.5949999999999991e-06,0.004698
-1.5909999999999988e-06,0.002621
-1.5869999999999985e-06,-0.005218
-1.5829999999999982e-06,-0.007898
-1.5789999999999996e-06,-0.001734
-1.5749999999999993e-06,0.004765
-1.570999999999999e-06,0.002554
-1.5669999999999987e-06,-0.005285000000000001
-1.5629999999999984e-06,-0.007898
-1.5589999999999981e-06,-0.0016
-1.5549999999999995e-06,0.004765
-1.5509999999999992e-06,0.0024200000000000003
-1.546999999999999e-06,-0.005419
-1.5429999999999986e-06,-0.007764
-1.5389999999999983e-06,-0.001399
-1.5349999999999997e-06,0.004765
-1.5309999999999994e-06,0.002286
-1.526999999999999e-06,-0.005486
-1.5229999999999988e-06,-0.007697000000000001
-1.5189999999999985e-06,-0.001265
-1.5149999999999982e-06,0.0048319999999999995
-1.5109999999999996e-06,0.0021520000000000003
-1.5069999999999993e-06,-0.005687
-1.502999999999999e-06,-0.0076300000000000005
-1.4989999999999987e-06,-0.001064
-1.4949999999999984e-06,0.004899
-1.4909999999999998e-06,0.0019509999999999998
-1.4869999999999995e-06,-0.005821000000000001
-1.4829999999999992e-06,-0.007563
-1.4789999999999989e-06,-0.00093
-1.4749999999999986e-06,0.004899
-1.4709999999999983e-06,0.00175
-1.4669999999999997e-06,-0.005955
-1.4629999999999994e-06,-0.007429000000000001
-1.458999999999999e-06,-0.000729
-1.4549999999999988e-06,0.004899
-1.4509999999999985e-06,0.001482
-1.4469999999999982e-06,-0.006156
-1.4429999999999996e-06,-0.0073620000000000005
-1.4389999999999993e-06,-0.00046100000000000004
-1.434999999999999e-06,0.004899
-1.4309999999999987e-06,0.0012810000000000002
-1.4269999999999984e-06,-0.0062900000000000005
-1.4229999999999998e-06,-0.007161000000000001
-1.4189999999999995e-06,-0.00019300000000000003
-1.4149999999999992e-06,0.004966
-1.4109999999999989e-06,0.001013
-1.4069999999999986e-06,-0.006491
-1.4029999999999983e-06,-0.007027
-1.3989999999999996e-06,7.499999999999998e-05
-1.3949999999999993e-06,0.004899
-1.390999999999999e-06,0.000678
-1.3869999999999987e-06,-0.006625000000000001
-1.3829999999999984e-06,-0.0068260000000000005
-1.3789999999999981e-06,0.000343
-1.3749999999999995e-06,0.004966
-1.3709999999999992e-06,0.00041
-1.366999999999999e-06,-0.0068260000000000005
-1.3629999999999986e-06,-0.006625000000000001
-1.3589999999999983e-06,0.000678
-1.3549999999999997e-06,0.004899
-1.3509999999999994e-06,7.499999999999998e-05
-1.3469999999999991e-06,-0.006960000000000001
-1.3429999999999988e-06,-0.006424000000000001
-1.3389999999999985e-06,0.001013
-1.3349999999999982e-06,0.004899
-1.3309999999999996e-06,-0.00032700000000000003
-1.3269999999999993e-06,-0.007161000000000001
-1.322999999999999e-06,-0.006156
-1.3189999999999987e-06,0.001348
-1.3149999999999984e-06,0.004765
-1.3109999999999981e-06,-0.000662
-1.3069999999999995e-06,-0.007295
-1.3029999999999992e-06,-0.005821000000000001
-1.298999999999999e-06,0.0016829999999999998
-1.2949999999999986e-06,0.004698
-1.2909999999999983e-06,-0.000997
-1.2869999999999997e-06,-0.007429000000000001
-1.2829999999999994e-06,-0.005553000000000001
-1.278999999999999e-06,0.0019509999999999998
-1.2749999999999988e-06,0.004564
-1.2709999999999985e-06,-0.001399
-1.2669999999999982e-06,-0.007563
-1.2629999999999996e-06,-0.005218
-1.2589999999999993e-06,0.002286
-1.254999999999999e-06,0.00443
-1.2509999999999987e-06,-0.001868
-1.2469999999999984e-06,-0.0076300000000000005
-1.242999999999998e-06,-0.004816
-1.2389999999999995e-06,0.002621
-1.2349999999999992e-06,0.004229
-1.2309999999999989e-06,-0.0022700000000000003
-1.2269999999999986e-06,-0.007697000000000001
-1.2229999999999983e-06,-0.004414
-1.2189999999999997e-06,0.0029560000000000003
-1.2149999999999994e-06,0.004028
-1.210999999999999e-06,-0.002739
-1.2069999999999988e-06,-0.007764
-1.2029999999999985e-06,-0.003945000000000001
-1.1989999999999982e-06,0.0032239999999999994
-1.1949999999999996e-06,0.0037599999999999995
-1.1909999999999993e-06,-0.003208
-1.186999999999999e-06,-0.007764
-1.1829999999999987e-06,-0.003476
-1.1789999999999984e-06,0.0035589999999999997
-1.1749999999999998e-06,0.003425
-1.1709999999999995e-06,-0.0036770000000000006
-1.1669999999999992e-06,-0.007697000000000001
-1.1629999999999989e-06,-0.003007
-1.1589999999999986e-06,0.0038269999999999997
-1.1549999999999983e-06,0.00309
-1.1509999999999997e-06,-0.004146
-1.1469999999999994e-06,-0.0076300000000000005
-1.142999999999999e-06,-0.002471
-1.1389999999999988e-06,0.004028
-1.1349999999999985e-06,0.0026880000000000003
-1.1309999999999981e-06,-0.004615
-1.1269999999999995e-06,-0.007563
-1.1229999999999992e-06,-0.001935
-1.118999999999999e-06,0.004229
-1.1149999999999986e-06,0.002286
-1.1109999999999983e-06,-0.005084
-1.1069999999999997e-06,-0.0073620000000000005
-1.1029999999999994e-06,-0.001399
-1.0989999999999991e-06,0.004363
-1.0949999999999988e-06,0.0018170000000000003
-1.0909999999999985e-06,-0.005486
-1.0869999999999982e-06,-0.007161000000000001
-1.0829999999999996e-06,-0.000863
-1.0789999999999993e-06,0.004497
-1.074999999999999e-06,0.0012810000000000002
-1.0709999999999987e-06,-0.005888000000000001
-1.0669999999999984e-06,-0.006893000000000001
-1.0629999999999981e-06,-0.00032700000000000003
-1.0589999999999995e-06,0.004497
-1.0549999999999992e-06,0.000678
-1.050999999999999e-06,-0.0062900000000000005
-1.0469999999999986e-06,-0.0065580000000000005
-1.0429999999999983e-06,0.000276
-1.0389999999999997e-06,0.004497
-1.0349999999999994e-06,7.499999999999998e-05
-1.0309999999999991e-06,-0.006625000000000001
-1.0269999999999988e-06,-0.006156
-1.0229999999999985e-06,0.000812
-1.0189999999999982e-06,0.00443
-1.0149999999999996e-06,-0.000528
-1.0109999999999993e-06,-0.006893000000000001
-1.006999999999999e-06,-0.005687
-1.0029999999999987e-06,0.0014149999999999998
-9.989999999999984e-07,0.004363
-9.94999999999998e-07,-0.001064
-9.909999999999995e-07,-0.0070940000000000005
-9.869999999999992e-07,-0.005151
-9.829999999999989e-07,0.0019509999999999998
-9.789999999999986e-07,0.004095
-9.749999999999983e-07,-0.001734
-9.709999999999997e-07,-0.007295
-9.669999999999994e-07,-0.004615
-9.62999999999999e-07,0.0024200000000000003
-9.589999999999988e-07,0.0038269999999999997
-9.549999999999985e-07,-0.002404
-9.509999999999982e-07,-0.0073620000000000005
-9.469999999999996e-07,-0.003945000000000001
-9.429999999999993e-07,0.002889
-9.38999999999999e-07,0.0034920000000000003
-9.349999999999987e-07,-0.0030740000000000003
-9.309999999999984e-07,-0.007429000000000001
-9.269999999999981e-07,-0.0033420000000000004
-9.229999999999995e-07,0.0032909999999999997
-9.189999999999992e-07,0.0030229999999999996
-9.149999999999989e-07,-0.003744
-9.109999999999986e-07,-0.0073620000000000005
-9.069999999999983e-07,-0.002605
-9.029999999999997e-07,0.003626
-8.989999999999994e-07,0.002554
-8.949999999999991e-07,-0.004414
-8.909999999999988e-07,-0.007228
-8.869999999999985e-07,-0.001868
-8.829999999999982e-07,0.003894
-8.789999999999995e-07,0.0019509999999999998
-8.749999999999992e-07,-0.00495
-8.709999999999989e-07,-0.006960000000000001
-8.669999999999986e-07,-0.001131
-8.629999999999983e-07,0.004095
-8.589999999999997e-07,0.0012810000000000002
-8.549999999999994e-07,-0.005553000000000001
-8.509999999999991e-07,-0.006625000000000001
-8.469999999999988e-07,-0.00046100000000000004
-8.429999999999985e-07,0.004162
-8.389999999999982e-07,0.000611
-8.349999999999996e-07,-0.0060220000000000004
-8.309999999999993e-07,-0.006223
-8.26999999999999e-07,0.000276
-8.229999999999987e-07,0.004229
-8.189999999999984e-07,-0.00012600000000000003
-8.149999999999981e-07,-0.006424000000000001
-8.109999999999995e-07,-0.005687
-8.069999999999992e-07,0.000946
-8.029999999999989e-07,0.004095
-7.989999999999986e-07,-0.00093
-7.949999999999983e-07,-0.006692
-7.909999999999997e-07,-0.005084
-7.869999999999994e-07,0.0016829999999999998
-7.829999999999991e-07,0.0038269999999999997
-7.789999999999988e-07,-0.001667
-7.749999999999985e-07,-0.006960000000000001
-7.709999999999982e-07,-0.004414
-7.669999999999996e-07,0.002286
-7.629999999999993e-07,0.0034920000000000003
-7.58999999999999e-07,-0.002471
-7.549999999999987e-07,-0.0070940000000000005
-7.509999999999984e-07,-0.0036770000000000006
-7.469999999999981e-07,0.0027549999999999996
-7.429999999999995e-07,0.00309
-7.389999999999992e-07,-0.003275
-7.349999999999989e-07,-0.0070940000000000005
-7.309999999999986e-07,-0.002873
-7.269999999999983e-07,0.0032239999999999994
-7.229999999999997e-07,0.002554
-7.189999999999994e-07,-0.004012
-7.149999999999991e-07,-0.006960000000000001
-7.109999999999988e-07,-0.002069
-7.069999999999985e-07,0.0035589999999999997
-7.029999999999982e-07,0.001884
-6.989999999999996e-07,-0.004749000000000001
-6.949999999999993e-07,-0.006692
-6.90999999999999e-07,-0.001131
-6.869999999999987e-07,0.0038269999999999997
-6.829999999999984e-07,0.0011469999999999998
-6.789999999999981e-07,-0.005352000000000001
-6.749999999999995e-07,-0.006357000000000001
-6.709999999999992e-07,-0.00039400000000000004
-6.669999999999989e-07,0.003894
-6.629999999999986e-07,0.000276
-6.589999999999983e-07,-0.005888000000000001
-6.549999999999997e-07,-0.005821000000000001
-6.509999999999994e-07,0.00041
-6.469999999999991e-07,0.003894
-6.429999999999988e-07,-0.000595
-6.389999999999985e-07,-0.006357000000000001
-6.349999999999982e-07,-0.005218
-6.309999999999995e-07,0.001214
-6.269999999999992e-07,0.003693
-6.22999999999999e-07,-0.001332
-6.189999999999986e-07,-0.006625000000000001
-6.149999999999983e-07,-0.004481000000000001
-6.109999999999997e-07,0.0019509999999999998
-6.069999999999994e-07,0.003358
-6.029999999999991e-07,-0.0022700000000000003
-5.989999999999988e-07,-0.0068260000000000005
-5.949999999999985e-07,-0.0036770000000000006
-5.909999999999982e-07,0.002554
-5.869999999999996e-07,0.002889
-5.829999999999993e-07,-0.0031410000000000006
-5.78999999999999e-07,-0.0068260000000000005
-5.749999999999987e-07,-0.002739
-5.709999999999984e-07,0.0030229999999999996
-5.669999999999981e-07,0.002286
-5.629999999999995e-07,-0.004012
-5.589999999999992e-07,-0.006625000000000001
-5.549999999999989e-07,-0.001801
-5.509999999999986e-07,0.003425
-5.469999999999983e-07,0.0015490000000000002
-5.429999999999997e-07,-0.004749000000000001
-5.389999999999994e-07,-0.006357000000000001
-5.349999999999991e-07,-0.00093
-5.309999999999988e-07,0.003626
-5.269999999999985e-07,0.000678
-5.229999999999982e-07,-0.005419
-5.189999999999996e-07,-0.005888000000000001
-5.149999999999993e-07,-5.9000000000000025e-05
-5.10999999999999e-07,0.003693
-5.069999999999987e-07,-0.00019300000000000003
-5.029999999999984e-07,-0.005955
-4.989999999999981e-07,-0.005285000000000001
-4.949999999999995e-07,0.000812
-4.909999999999992e-07,0.0035589999999999997
-4.869999999999989e-07,-0.001131
-4.829999999999986e-07,-0.006357000000000001
-4.789999999999983e-07,-0.004548
-4.749999999999997e-07,0.001616
-4.709999999999994e-07,0.0032239999999999994
-4.669999999999991e-07,-0.002069
-4.629999999999988e-07,-0.0065580000000000005
-4.589999999999985e-07,-0.0036770000000000006
-4.549999999999982e-07,0.002353
-4.509999999999996e-07,0.0026880000000000003
-4.469999999999993e-07,-0.003007
-4.42999999999999e-07,-0.0065580000000000005
-4.389999999999987e-07,-0.002672
-4.349999999999984e-07,0.002889
-4.309999999999981e-07,0.002085
-4.2699999999999947e-07,-0.003945000000000001
-4.2299999999999917e-07,-0.006424000000000001
-4.1899999999999887e-07,-0.001734
-4.1499999999999857e-07,0.0032239999999999994
-4.1099999999999827e-07,0.0012810000000000002
-4.0699999999999966e-07,-0.004749000000000001
-4.0299999999999936e-07,-0.006089000000000001
-3.9899999999999906e-07,-0.000796
-3.9499999999999876e-07,0.003425
-3.9099999999999846e-07,0.000343
-3.8699999999999816e-07,-0.005419
-3.8299999999999955e-07,-0.005553000000000001
-3.7899999999999925e-07,0.00014199999999999998
-3.7499999999999895e-07,0.003425
-3.7099999999999865e-07,-0.000662
-3.6699999999999835e-07,-0.005955
-3.6299999999999805e-07,-0.004816
-3.5899999999999944e-07,0.00108
-3.5499999999999914e-07,0.0032239999999999994
-3.5099999999999884e-07,-0.0016
-3.4699999999999854e-07,-0.0062900000000000005
-3.4299999999999824e-07,-0.003945000000000001
-3.3899999999999963e-07,0.0019509999999999998
-3.3499999999999933e-07,0.0027549999999999996
-3.3099999999999903e-07,-0.002605
-3.2699999999999873e-07,-0.006357000000000001
-3.2299999999999843e-07,-0.00294
-3.1899999999999813e-07,0.002554
-3.149999999999995e-07,0.0021520000000000003
-3.109999999999992e-07,-0.0036100000000000004
-3.069999999999989e-07,-0.0062900000000000005
-3.029999999999986e-07,-0.001935
-2.989999999999983e-07,0.0029560000000000003
-2.949999999999997e-07,0.001348
-2.909999999999994e-07,-0.004481000000000001
-2.869999999999991e-07,-0.005955
-2.829999999999988e-07,-0.00093
-2.789999999999985e-07,0.0032239999999999994
-2.749999999999982e-07,0.00041
-2.709999999999996e-07,-0.005151
-2.669999999999993e-07,-0.005352000000000001
-2.62999999999999e-07,7.499999999999998e-05
-2.589999999999987e-07,0.0032239999999999994
-2.549999999999984e-07,-0.000662
-2.509999999999981e-07,-0.0057540000000000004
-2.469999999999995e-07,-0.004682
-2.429999999999992e-07,0.001013
-2.389999999999989e-07,0.0030229999999999996
-2.349999999999986e-07,-0.0016
-2.309999999999983e-07,-0.0060220000000000004
-2.269999999999997e-07,-0.003744
-2.229999999999994e-07,0.001884
-2.189999999999991e-07,0.002554
-2.149999999999988e-07,-0.002605
-2.109999999999985e-07,-0.006156
-2.069999999999982e-07,-0.002739
-2.0299999999999958e-07,0.0024200000000000003
-1.9899999999999928e-07,0.001884
-1.9499999999999898e-07,-0.0036770000000000006
-1.9099999999999868e-07,-0.005955
-1.8699999999999838e-07,-0.001667
-1.8299999999999808e-07,0.002889
-1.7899999999999947e-07,0.001013
-1.7499999999999917e-07,-0.004548
-1.7099999999999887e-07,-0.00562
-1.6699999999999857e-07,-0.000662
-1.6299999999999827e-07,0.00309
-1.5899999999999966e-07,7.999999999999978e-06
-1.5499999999999936e-07,-0.005218
-1.5099999999999906e-07,-0.00495
-1.4699999999999876e-07,0.000343
-1.4299999999999846e-07,0.0030229999999999996
-1.3899999999999816e-07,-0.000997
-1.3499999999999955e-07,-0.005687
-1.3099999999999925e-07,-0.004146
-1.2699999999999895e-07,0.001348
-1.2299999999999865e-07,0.0026880000000000003
-1.1899999999999835e-07,-0.002069
-1.1499999999999805e-07,-0.005955
-1.1099999999999945e-07,-0.0031410000000000006
-1.0699999999999914e-07,0.002085
-1.0299999999999884e-07,0.002085
-9.899999999999854e-08,-0.0031410000000000006
-9.499999999999824e-08,-0.005888000000000001
-9.099999999999964e-08,-0.002069
-8.699999999999934e-08,0.002554
-8.299999999999904e-08,0.001214
-7.899999999999874e-08,-0.004146
-7.499999999999843e-08,-0.005553000000000001
-7.099999999999813e-08,-0.00093
-6.699999999999953e-08,0.002889
-6.299999999999923e-08,0.000276
-5.899999999999893e-08,-0.004883
-5.4999999999998626e-08,-0.005017000000000001
-5.0999999999998326e-08,7.499999999999998e-05
-4.6999999999998025e-08,0.002822
-4.299999999999942e-08,-0.000796
-3.899999999999912e-08,-0.005419
-3.499999999999882e-08,-0.004213000000000001
-3.099999999999852e-08,0.001013
-2.6999999999998217e-08,0.002554
-2.299999999999961e-08,-0.001868
-1.899999999999931e-08,-0.005687
-1.499999999999901e-08,-0.003208
-1.0999999999998709e-08,0.0018170000000000003
-6.999999999998408e-09,0.002018
-2.999999999998108e-09,-0.00294
1.0000000000004986e-09,-0.005687
5.000000000000799e-09,-0.002069
9.0000000000011e-09,0.0024200000000000003
1.30000000000014e-08,0.001214
1.70000000000017e-08,-0.003945000000000001
2.1000000000000307e-08,-0.005352000000000001
2.5000000000000608e-08,-0.000997
2.9000000000000908e-08,0.0026880000000000003
3.300000000000121e-08,0.000276
3.700000000000151e-08,-0.004682
4.100000000000181e-08,-0.004816
4.5000000000000416e-08,7.999999999999978e-06
4.900000000000072e-08,0.0026880000000000003
5.300000000000102e-08,-0.000863
5.700000000000132e-08,-0.005218
6.100000000000162e-08,-0.004012
6.500000000000192e-08,0.001013
6.900000000000053e-08,0.002353
7.300000000000083e-08,-0.001935
7.700000000000113e-08,-0.005486
8.100000000000143e-08,-0.003007
8.500000000000173e-08,0.0018170000000000003
8.900000000000033e-08,0.0018170000000000003
9.300000000000063e-08,-0.003007
9.700000000000093e-08,-0.005419
1.0100000000000124e-07,-0.001868
1.0500000000000154e-07,0.002353
1.0900000000000184e-07,0.000946
1.1300000000000044e-07,-0.003945000000000001
1.1700000000000074e-07,-0.005084
1.2100000000000104e-07,-0.000796
1.2500000000000134e-07,0.002554
1.2900000000000164e-07,-5.9000000000000025e-05
1.3300000000000195e-07,-0.004682
1.3700000000000055e-07,-0.004414
1.4100000000000085e-07,0.000276
1.4500000000000115e-07,0.0024869999999999996
1.4900000000000145e-07,-0.001064
1.5300000000000175e-07,-0.005084
1.5700000000000036e-07,-0.003543
1.6100000000000066e-07,0.001214
1.6500000000000096e-07,0.002085
1.6900000000000126e-07,-0.002203
1.7300000000000156e-07,-0.005218
1.7700000000000186e-07,-0.002471
1.8100000000000047e-07,0.0019509999999999998
1.8500000000000077e-07,0.001348
1.8900000000000107e-07,-0.003275
1.9300000000000137e-07,-0.005084
1.9700000000000167e-07,-0.001332
2.0100000000000197e-07,0.002286
2.0500000000000058e-07,0.000477
2.0900000000000088e-07,-0.004146
2.1300000000000118e-07,-0.004615
2.1700000000000148e-07,-0.00032700000000000003
2.2100000000000178e-07,0.002353
2.250000000000004e-07,-0.000662
2.290000000000007e-07,-0.004749000000000001
2.33000000000001e-07,-0.003811
2.370000000000013e-07,0.000678
2.410000000000016e-07,0.0021520000000000003
2.450000000000019e-07,-0.001667
2.490000000000005e-07,-0.005017000000000001
2.530000000000008e-07,-0.002873
2.570000000000011e-07,0.001482
2.610000000000014e-07,0.0015490000000000002
2.650000000000017e-07,-0.002739
2.69000000000002e-07,-0.005017000000000001
2.730000000000006e-07,-0.001734
2.770000000000009e-07,0.002085
2.810000000000012e-07,0.000745
2.850000000000015e-07,-0.0036770000000000006
2.890000000000018e-07,-0.004548
2.930000000000004e-07,-0.000662
2.970000000000007e-07,0.0022189999999999996
3.01000000000001e-07,-0.00032700000000000003
3.050000000000013e-07,-0.004414
3.090000000000016e-07,-0.003945000000000001
3.130000000000019e-07,0.000343
3.170000000000005e-07,0.002085
3.210000000000008e-07,-0.001332
3.250000000000011e-07,-0.004749000000000001
3.290000000000014e-07,-0.00294
3.330000000000017e-07,0.001214
3.3700000000000033e-07,0.001616
3.4100000000000063e-07,-0.002404
3.4500000000000093e-07,-0.004816
3.4900000000000123e-07,-0.001868
3.5300000000000153e-07,0.0018170000000000003
3.5700000000000183e-07,0.000812
3.6100000000000044e-07,-0.0033420000000000004
3.6500000000000074e-07,-0.004481000000000001
3.6900000000000104e-07,-0.000863
3.7300000000000134e-07,0.002085
3.7700000000000164e-07,-0.00019300000000000003
3.8100000000000194e-07,-0.004079
3.8500000000000055e-07,-0.003811
3.8900000000000085e-07,0.00020899999999999998
3.9300000000000115e-07,0.0019509999999999998
3.9700000000000145e-07,-0.001131
4.0100000000000175e-07,-0.004481000000000001
4.0500000000000036e-07,-0.00294
4.0900000000000066e-07,0.001013
4.1300000000000096e-07,0.0015490000000000002
4.1700000000000126e-07,-0.002203
4.2100000000000156e-07,-0.004548
4.2500000000000186e-07,-0.001868
4.2900000000000047e-07,0.001616
4.3300000000000077e-07,0.000745
4.3700000000000107e-07,-0.003208
4.4100000000000137e-07,-0.004347
4.4500000000000167e-07,-0.00093
4.4900000000000197e-07,0.001884
4.530000000000006e-07,-0.00019300000000000003
4.570000000000009e-07,-0.003945000000000001
4.610000000000012e-07,-0.0036770000000000006
4.650000000000015e-07,0.00014199999999999998
4.690000000000018e-07,0.0018170000000000003
4.730000000000004e-07,-0.001198
4.770000000000007e-07,-0.00428
4.81000000000001e-07,-0.0028060000000000003
4.850000000000013e-07,0.001013
4.890000000000016e-07,0.001348
4.930000000000019e-07,-0.002203
4.970000000000005e-07,-0.004347
5.010000000000008e-07,-0.001734
5.050000000000011e-07,0.0015490000000000002
5.090000000000014e-07,0.000611
5.130000000000017e-07,-0.0031410000000000006
5.17000000000002e-07,-0.004079
5.210000000000006e-07,-0.000796
5.250000000000009e-07,0.0018170000000000003
5.290000000000012e-07,-0.00032700000000000003
5.330000000000015e-07,-0.003811
5.370000000000018e-07,-0.0034090000000000006
5.410000000000004e-07,0.00020899999999999998
5.450000000000007e-07,0.001616
5.49000000000001e-07,-0.001332
5.530000000000013e-07,-0.004146
5.570000000000016e-07,-0.002471
5.610000000000019e-07,0.001013
5.650000000000005e-07,0.0011469999999999998
5.690000000000008e-07,-0.002337
5.730000000000011e-07,-0.004146
5.770000000000014e-07,-0.001466
5.810000000000017e-07,0.001482
5.85000000000002e-07,0.000343
5.890000000000006e-07,-0.0031410000000000006
5.930000000000009e-07,-0.003744
5.970000000000012e-07,-0.000528
6.010000000000015e-07,0.0016829999999999998
6.050000000000018e-07,-0.000595
6.090000000000004e-07,-0.003744
6.130000000000007e-07,-0.0030740000000000003
6.17000000000001e-07,0.00041
6.210000000000013e-07,0.0014149999999999998
6.250000000000016e-07,-0.001533
6.290000000000019e-07,-0.004012
6.330000000000005e-07,-0.002069
6.370000000000008e-07,0.0011469999999999998
6.410000000000011e-07,0.000879
6.450000000000014e-07,-0.002471
6.490000000000017e-07,-0.0038780000000000004
6.530000000000004e-07,-0.001131
6.570000000000007e-07,0.001482
6.61000000000001e-07,7.999999999999978e-06
6.650000000000013e-07,-0.003275
6.690000000000016e-07,-0.0034090000000000006
6.730000000000019e-07,-0.00019300000000000003
6.770000000000005e-07,0.001482
6.810000000000008e-07,-0.00093
6.850000000000011e-07,-0.003744
6.890000000000014e-07,-0.002605
6.930000000000017e-07,0.000611
6.97000000000002e-07,0.0011469999999999998
7.010000000000006e-07,-0.001868
7.050000000000009e-07,-0.003811
7.090000000000012e-07,-0.0016
7.130000000000015e-07,0.001214
7.170000000000018e-07,0.00041
7.210000000000004e-07,-0.002739
7.250000000000007e-07,-0.003543
7.29000000000001e-07,-0.000729
7.330000000000013e-07,0.0014149999999999998
7.370000000000016e-07,-0.00046100000000000004
7.410000000000019e-07,-0.0033420000000000004
7.450000000000005e-07,-0.002873
7.490000000000008e-07,0.00014199999999999998
7.530000000000011e-07,0.001214
7.570000000000014e-07,-0.001332
7.610000000000017e-07,-0.0036100000000000004
7.65000000000002e-07,-0.002069
7.690000000000006e-07,0.000879
7.730000000000009e-07,0.000678
7.770000000000012e-07,-0.0022700000000000003
7.810000000000015e-07,-0.003543
7.850000000000018e-07,-0.001131
7.890000000000004e-07,0.001214
7.930000000000007e-07,-5.9000000000000025e-05
7.97000000000001e-07,-0.003007
8.010000000000013e-07,-0.0030740000000000003
8.050000000000016e-07,-0.00026000000000000003
8.090000000000019e-07,0.0012810000000000002
8.130000000000005e-07,-0.00093
8.170000000000008e-07,-0.0034090000000000006
8.210000000000011e-07,-0.002337
8.250000000000014e-07,0.000544
8.290000000000017e-07,0.000879
8.33000000000002e-07,-0.001801
8.370000000000006e-07,-0.003476
8.410000000000009e-07,-0.001399
8.450000000000012e-07,0.00108
8.490000000000015e-07,0.00020899999999999998
8.530000000000018e-07,-0.002605
8.570000000000004e-07,-0.0031410000000000006
8.610000000000007e-07,-0.000595
8.65000000000001e-07,0.001214
8.690000000000013e-07,-0.000595
8.730000000000016e-07,-0.0031410000000000006
8.770000000000019e-07,-0.0025380000000000003
8.810000000000005e-07,0.00020899999999999998
8.850000000000008e-07,0.000946
8.890000000000011e-07,-0.001466
8.930000000000014e-07,-0.0033420000000000004
8.970000000000017e-07,-0.001667
9.010000000000004e-07,0.000812
9.050000000000007e-07,0.00041
9.09000000000001e-07,-0.0022700000000000003
9.130000000000013e-07,-0.0031410000000000006
9.170000000000016e-07,-0.000863
9.210000000000019e-07,0.00108
9.250000000000005e-07,-0.00039400000000000004
9.290000000000008e-07,-0.002873
9.330000000000011e-07,-0.002605
9.370000000000014e-07,7.999999999999978e-06
9.410000000000017e-07,0.000946
9.45000000000002e-07,-0.001198
9.490000000000006e-07,-0.003208
9.530000000000009e-07,-0.001868
9.570000000000012e-07,0.000611
9.610000000000015e-07,0.000544
9.650000000000018e-07,-0.0020020000000000003
9.690000000000004e-07,-0.0030740000000000003
9.730000000000007e-07,-0.00093
9.77000000000001e-07,0.000946
9.810000000000013e-07,-0.00019300000000000003
9.850000000000016e-07,-0.002672
9.890000000000019e-07,-0.002605
9.930000000000005e-07,-0.00019300000000000003
9.970000000000008e-07,0.000946
1.001000000000001e-06,-0.000997
1.0050000000000014e-06,-0.003007
1.0090000000000017e-06,-0.001935
1.013000000000002e-06,0.000477
1.0170000000000006e-06,0.000544
1.021000000000001e-06,-0.001801
1.0250000000000012e-06,-0.003007
1.0290000000000015e-06,-0.001131
1.0330000000000018e-06,0.000879
1.0370000000000004e-06,-0.00012600000000000003
1.0410000000000007e-06,-0.002471
1.045000000000001e-06,-0.002605
1.0490000000000013e-06,-0.00032700000000000003
1.0530000000000016e-06,0.000879
1.057000000000002e-06,-0.00093
1.0610000000000005e-06,-0.002873
1.0650000000000008e-06,-0.001935
1.0690000000000011e-06,0.000343
1.0730000000000014e-06,0.000544
1.0770000000000017e-06,-0.0016
1.081000000000002e-06,-0.002873
1.0850000000000006e-06,-0.001131
1.089000000000001e-06,0.000745
1.0930000000000012e-06,-5.9000000000000025e-05
1.0970000000000015e-06,-0.0022700000000000003
1.1010000000000018e-06,-0.0025380000000000003
1.1050000000000004e-06,-0.00046100000000000004
1.1090000000000007e-06,0.000812
1.113000000000001e-06,-0.000863
1.1170000000000013e-06,-0.002739
1.1210000000000016e-06,-0.001935
1.125000000000002e-06,0.000276
1.1290000000000005e-06,0.000544
1.1330000000000008e-06,-0.001533
1.1370000000000011e-06,-0.002739
1.1410000000000014e-06,-0.001198
1.1450000000000017e-06,0.000678
1.149000000000002e-06,-5.9000000000000025e-05
1.1530000000000006e-06,-0.002203
1.157000000000001e-06,-0.002471
1.1610000000000013e-06,-0.00046100000000000004
1.1650000000000016e-06,0.000745
1.1690000000000019e-06,-0.000863
1.1730000000000005e-06,-0.002605
1.1770000000000008e-06,-0.001935
1.181000000000001e-06,0.00020899999999999998
1.1850000000000014e-06,0.000477
1.1890000000000017e-06,-0.001466
1.193000000000002e-06,-0.002605
1.1970000000000006e-06,-0.001131
1.2010000000000009e-06,0.000611
1.2050000000000012e-06,-5.9000000000000025e-05
1.2090000000000015e-06,-0.002136
1.2130000000000018e-06,-0.002404
1.2170000000000004e-06,-0.00046100000000000004
1.2210000000000007e-06,0.000678
1.225000000000001e-06,-0.000796
1.2290000000000013e-06,-0.002471
1.2330000000000016e-06,-0.001801
1.2370000000000019e-06,0.00020899999999999998
1.2410000000000005e-06,0.00041
1.2450000000000008e-06,-0.001466
1.249000000000001e-06,-0.0025380000000000003
1.2530000000000014e-06,-0.001131
1.2570000000000017e-06,0.000544
1.261000000000002e-06,-0.00019300000000000003
1.2650000000000006e-06,-0.002069
1.269000000000001e-06,-0.0022700000000000003
1.2730000000000012e-06,-0.00046100000000000004
1.2770000000000015e-06,0.000544
1.2810000000000018e-06,-0.000863
1.2850000000000004e-06,-0.002404
1.2890000000000007e-06,-0.001667
1.293000000000001e-06,0.00020899999999999998
1.2970000000000013e-06,0.000276
1.3010000000000016e-06,-0.001466
1.305000000000002e-06,-0.002404
1.3090000000000005e-06,-0.000997
1.3130000000000008e-06,0.000477
1.3170000000000011e-06,-0.00026000000000000003
1.3210000000000014e-06,-0.002069
1.3250000000000017e-06,-0.002136
1.329000000000002e-06,-0.00039400000000000004
1.3330000000000006e-06,0.000477
1.337000000000001e-06,-0.00093
1.3410000000000012e-06,-0.002337
1.3450000000000015e-06,-0.001533
1.3490000000000018e-06,0.00020899999999999998
1.3530000000000004e-06,0.00020899999999999998
1.3570000000000007e-06,-0.001533
1.361000000000001e-06,-0.0022700000000000003
1.3650000000000013e-06,-0.00093
1.3690000000000016e-06,0.000477
1.373000000000002e-06,-0.00039400000000000004
1.3770000000000005e-06,-0.002069
1.3810000000000008e-06,-0.001935
1.3850000000000011e-06,-0.00026000000000000003
1.3890000000000014e-06,0.00041
1.3930000000000017e-06,-0.000997
1.397000000000002e-06,-0.0022700000000000003
1.4010000000000006e-06,-0.001332
1.405000000000001e-06,0.00020899999999999998
1.4090000000000012e-06,7.499999999999998e-05
1.4130000000000015e-06,-0.0016
1.4170000000000018e-06,-0.002203
1.4210000000000005e-06,-0.000796
1.4250000000000008e-06,0.00041
1.429000000000001e-06,-0.000528
1.4330000000000014e-06,-0.0020020000000000003
1.4370000000000017e-06,-0.001734
1.441000000000002e-06,-0.00019300000000000003
1.4450000000000006e-06,0.000276
1.4490000000000009e-06,-0.001131
1.4530000000000012e-06,-0.002203
1.4570000000000015e-06,-0.001131
1.4610000000000018e-06,0.000276
1.465000000000002e-06,-0.00012600000000000003
1.4690000000000007e-06,-0.001667
1.473000000000001e-06,-0.0020020000000000003
1.4770000000000013e-06,-0.000595
1.4810000000000016e-06,0.000343
1.4850000000000019e-06,-0.000662
1.4890000000000005e-06,-0.0020020000000000003
1.4930000000000008e-06,-0.001533
1.497000000000001e-06,-5.9000000000000025e-05
1.5010000000000014e-06,0.00014199999999999998
1.5050000000000017e-06,-0.001265
1.509000000000002e-06,-0.002069
1.5130000000000006e-06,-0.000997
1.5170000000000009e-06,0.000276
1.5210000000000012e-06,-0.00032700000000000003
1.5250000000000015e-06,-0.001734
1.5290000000000018e-06,-0.001868
1.5330000000000004e-06,-0.00046100000000000004
1.5370000000000007e-06,0.000276
1.541000000000001e-06,-0.000863
1.5450000000000013e-06,-0.0020020000000000003
1.5490000000000016e-06,-0.001332
1.553000000000002e-06,7.499999999999998e-05
1.5570000000000005e-06,7.999999999999978e-06
1.5610000000000008e-06,-0.001399
1.5650000000000011e-06,-0.0020020000000000003
1.5690000000000014e-06,-0.000796
1.5730000000000017e-06,0.000276
1.577000000000002e-06,-0.00046100000000000004
1.5810000000000006e-06,-0.001801
1.585000000000001e-06,-0.0016
1.5890000000000012e-06,-0.00026000000000000003
1.5930000000000015e-06,0.00020899999999999998
1.5970000000000018e-06,-0.000997
1.6010000000000004e-06,-0.001935
1.6050000000000007e-06,-0.001064
1.609000000000001e-06,7.499999999999998e-05
1.6130000000000013e-06,-0.00019300000000000003
1.6170000000000016e-06,-0.001533
1.621000000000002e-06,-0.001801
1.6250000000000005e-06,-0.000595
1.6290000000000008e-06,0.00020899999999999998
1.6330000000000011e-06,-0.000729
1.6370000000000014e-06,-0.001801
1.6410000000000017e-06,-0.001399
1.645000000000002e-06,-0.00012600000000000003
1.6490000000000006e-06,7.999999999999978e-06
1.653000000000001e-06,-0.001198
1.6570000000000012e-06,-0.001868
1.6610000000000015e-06,-0.00093
1.6650000000000018e-06,0.00014199999999999998
1.6690000000000005e-06,-0.00039400000000000004
1.6730000000000008e-06,-0.0016
1.677000000000001e-06,-0.0016
1.6810000000000014e-06,-0.00039400000000000004
1.6850000000000017e-06,0.00014199999999999998
1.689000000000002e-06,-0.00093
1.6930000000000006e-06,-0.001801
1.6970000000000009e-06,-0.001131
1.7010000000000012e-06,7.499999999999998e-05
1.7050000000000015e-06,-0.00012600000000000003
1.7090000000000018e-06,-0.001332
1.713000000000002e-06,-0.001667
1.7170000000000007e-06,-0.000662
1.721000000000001e-06,0.00014199999999999998
1.7250000000000013e-06,-0.000662
1.7290000000000016e-06,-0.001667
1.7330000000000019e-06,-0.001332
1.7370000000000005e-06,-0.00019300000000000003
1.7410000000000008e-06,7.999999999999978e-06
1.745000000000001e-06,-0.001064
1.7490000000000014e-06,-0.001734
1.7530000000000017e-06,-0.00093
1.757000000000002e-06,0.00014199999999999998
1.7610000000000006e-06,-0.00039400000000000004
1.7650000000000009e-06,-0.001466
1.7690000000000012e-06,-0.001466
1.7730000000000015e-06,-0.00039400000000000004
1.7770000000000018e-06,0.00014199999999999998
1.781000000000002e-06,-0.000863
1.7850000000000007e-06,-0.001667
1.789000000000001e-06,-0.001131
1.7930000000000013e-06,-5.9000000000000025e-05
1.7970000000000016e-06,-0.00019300000000000003
1.801000000000002e-06,-0.001265
1.8050000000000005e-06,-0.0016
1.8090000000000008e-06,-0.000662
1.8130000000000011e-06,7.499999999999998e-05
1.8170000000000014e-06,-0.000662
1.8210000000000017e-06,-0.001533
1.825000000000002e-06,-0.001265
1.8290000000000006e-06,-0.00019300000000000003
1.833000000000001e-06,-5.9000000000000025e-05
1.8370000000000012e-06,-0.000997
1.8410000000000015e-06,-0.0016
1.8450000000000018e-06,-0.000863
1.8490000000000004e-06,7.999999999999978e-06
1.8530000000000007e-06,-0.00046100000000000004
1.857000000000001e-06,-0.001466
1.8610000000000013e-06,-0.001399
1.8650000000000016e-06,-0.00039400000000000004
1.869000000000002e-06,7.999999999999978e-06
1.8730000000000005e-06,-0.00093
1.8770000000000008e-06,-0.0016
1.8810000000000011e-06,-0.000997
1.8850000000000014e-06,-5.9000000000000025e-05
1.8890000000000017e-06,-0.00026000000000000003
1.893000000000002e-06,-0.001265
1.8970000000000006e-06,-0.001466
1.901000000000001e-06,-0.000595
1.9050000000000012e-06,7.999999999999978e-06
1.9090000000000015e-06,-0.000662
1.913000000000002e-06,-0.001533
1.9170000000000005e-06,-0.001198
1.9210000000000008e-06,-0.00019300000000000003
1.925000000000001e-06,-0.00012600000000000003
1.9290000000000014e-06,-0.001064
1.9330000000000017e-06,-0.001533
1.937000000000002e-06,-0.000796
1.9410000000000006e-06,7.999999999999978e-06
1.945000000000001e-06,-0.000528
1.949000000000001e-06,-0.001399
1.9530000000000015e-06,-0.001265
1.9570000000000018e-06,-0.00032700000000000003
1.961000000000002e-06,-5.9000000000000025e-05
1.9650000000000007e-06,-0.00093
1.969000000000001e-06,-0.001466
1.9730000000000013e-06,-0.00093
1.9770000000000016e-06,-5.9000000000000025e-05
1.981000000000002e-06,-0.00032700000000000003
1.9850000000000005e-06,-0.001265
1.9890000000000008e-06,-0.001332
1.993000000000001e-06,-0.00046100000000000004
1.9970000000000014e-06,7.999999999999978e-06
2.0010000000000017e-06,-0.000729
2.005000000000002e-06,-0.001466
2.0090000000000006e-06,-0.000997
2.013000000000001e-06,-0.00012600000000000003
2.017000000000001e-06,-0.00026000000000000003
2.0210000000000015e-06,-0.001131
2.0250000000000018e-06,-0.001399
2.029000000000002e-06,-0.000662
2.0330000000000007e-06,-5.9000000000000025e-05
2.037000000000001e-06,-0.000662
2.0410000000000013e-06,-0.001399
2.0450000000000016e-06,-0.001131
2.049000000000002e-06,-0.00026000000000000003
2.0530000000000005e-06,-0.00019300000000000003
2.057000000000001e-06,-0.000997
2.061000000000001e-06,-0.001399
2.0650000000000014e-06,-0.000796
2.0690000000000017e-06,-0.00012600000000000003
2.073000000000002e-06,-0.000528
2.0770000000000006e-06,-0.001332
2.081000000000001e-06,-0.001198
2.0850000000000012e-06,-0.00039400000000000004
2.0890000000000015e-06,-0.00012600000000000003
2.093000000000002e-06,-0.00093
2.097000000000002e-06,-0.001399
2.1010000000000007e-06,-0.000863
2.105000000000001e-06,-0.00012600000000000003
2.1090000000000013e-06,-0.00039400000000000004
2.1130000000000016e-06,-0.001131
2.117000000000002e-06,-0.001265
2.1210000000000005e-06,-0.00046100000000000004
2.125000000000001e-06,-5.9000000000000025e-05
2.129000000000001e-06,-0.000796
2.1330000000000014e-06,-0.001332
2.1370000000000017e-06,-0.00093
2.141000000000002e-06,-0.00019300000000000003
2.1450000000000006e-06,-0.00032700000000000003
2.149000000000001e-06,-0.001064
2.1530000000000012e-06,-0.001332
2.1570000000000015e-06,-0.000595
2.161000000000002e-06,-0.00012600000000000003
2.1650000000000004e-06,-0.000662
2.1690000000000007e-06,-0.001332
2.173000000000001e-06,-0.000997
2.1770000000000013e-06,-0.00026000000000000003
2.1810000000000016e-06,-0.00026000000000000003
2.185000000000002e-06,-0.000997
2.1890000000000006e-06,-0.001265
2.193000000000001e-06,-0.000662
2.197000000000001e-06,-0.00012600000000000003
2.2010000000000015e-06,-0.000528
2.2050000000000018e-06,-0.001198
2.209000000000002e-06,-0.001064
2.2130000000000007e-06,-0.00032700000000000003
2.217000000000001e-06,-0.00019300000000000003
2.2210000000000013e-06,-0.00093
2.2250000000000016e-06,-0.001265
2.229000000000002e-06,-0.000796
2.2330000000000005e-06,-0.00012600000000000003
2.2370000000000008e-06,-0.00046100000000000004
2.241000000000001e-06,-0.001198
2.2450000000000014e-06,-0.001131
2.2490000000000017e-06,-0.00039400000000000004
2.253000000000002e-06,-0.00019300000000000003
2.2570000000000006e-06,-0.000796
2.261000000000001e-06,-0.001265
2.265000000000001e-06,-0.000863
2.2690000000000015e-06,-0.00019300000000000003
2.2730000000000018e-06,-0.00046100000000000004
2.277000000000002e-06,-0.001064
2.2810000000000007e-06,-0.001131
2.285000000000001e-06,-0.00046100000000000004
2.2890000000000013e-06,-0.00019300000000000003
2.2930000000000016e-06,-0.000796
2.297000000000002e-06,-0.001198
2.3010000000000005e-06,-0.00093
2.305000000000001e-06,-0.00019300000000000003
2.309000000000001e-06,-0.00032700000000000003
2.3130000000000014e-06,-0.000997
2.3170000000000017e-06,-0.001131
2.321000000000002e-06,-0.000528
2.3250000000000006e-06,-0.00019300000000000003
2.329000000000001e-06,-0.000662
2.333000000000001e-06,-0.001198
2.3370000000000015e-06,-0.00093
2.341000000000002e-06,-0.00026000000000000003
2.345000000000002e-06,-0.00032700000000000003
2.3490000000000007e-06,-0.00093
2.353000000000001e-06,-0.001131
2.3570000000000013e-06,-0.000595
2.3610000000000016e-06,-0.00019300000000000003
2.365000000000002e-06,-0.000662
2.3690000000000005e-06,-0.001198
2.373000000000001e-06,-0.00093
2.377000000000001e-06,-0.00032700000000000003
2.3810000000000014e-06,-0.00032700000000000003
2.3850000000000017e-06,-0.00093
2.389000000000002e-06,-0.001131
2.3930000000000006e-06,-0.000662
2.397000000000001e-06,-0.00019300000000000003
2.4010000000000012e-06,-0.000595
2.4050000000000015e-06,-0.001131
2.409000000000002e-06,-0.00093
2.413000000000002e-06,-0.00039400000000000004
2.4170000000000007e-06,-0.00032700000000000003
2.421000000000001e-06,-0.00093
2.4250000000000013e-06,-0.001131
2.4290000000000016e-06,-0.000729
2.433000000000002e-06,-0.00026000000000000003
2.4370000000000006e-06,-0.000528
2.441000000000001e-06,-0.001064
2.445000000000001e-06,-0.000997
2.4490000000000015e-06,-0.00039400000000000004
2.4530000000000018e-06,-0.00026000000000000003
2.457000000000002e-06,-0.000863
2.4610000000000007e-06,-0.001131
2.465000000000001e-06,-0.000729
2.4690000000000013e-06,-0.00026000000000000003
2.4730000000000016e-06,-0.000528
2.477000000000002e-06,-0.000997
2.4810000000000005e-06,-0.000997
2.4850000000000008e-06,-0.00046100000000000004
2.489000000000001e-06,-0.00026000000000000003
2.4930000000000014e-06,-0.000863
2.4970000000000017e-06,-0.001131
2.501000000000002e-06,-0.000796
2.5050000000000006e-06,-0.00026000000000000003
2.509000000000001e-06,-0.000528
2.513000000000001e-06,-0.000997
2.5170000000000015e-06,-0.000997
2.5210000000000018e-06,-0.00046100000000000004
2.525000000000002e-06,-0.00026000000000000003
2.5290000000000007e-06,-0.000796
2.533000000000001e-06,-0.001064
2.5370000000000013e-06,-0.000796
2.5410000000000016e-06,-0.00026000000000000003
2.545000000000002e-06,-0.00046100000000000004
2.5490000000000005e-06,-0.000997
2.553000000000001e-06,-0.000997
2.557000000000001e-06,-0.000528
2.5610000000000014e-06,-0.00026000000000000003
2.5650000000000017e-06,-0.000729
2.569000000000002e-06,-0.001064
2.5730000000000006e-06,-0.000796
2.577000000000001e-06,-0.00026000000000000003
2.581000000000001e-06,-0.00046100000000000004
2.5850000000000015e-06,-0.00093
2.589000000000002e-06,-0.00093
2.593000000000002e-06,-0.000528
2.5970000000000007e-06,-0.00026000000000000003
2.601000000000001e-06,-0.000729
2.6050000000000013e-06,-0.000997
2.6090000000000016e-06,-0.000796
2.613000000000002e-06,-0.00032700000000000003
2.6170000000000005e-06,-0.00046100000000000004
2.621000000000001e-06,-0.00093
2.625000000000001e-06,-0.00093
2.6290000000000014e-06,-0.000528
2.6330000000000017e-06,-0.00026000000000000003
2.637000000000002e-06,-0.000729
2.6410000000000006e-06,-0.000997
2.645000000000001e-06,-0.000796
2.6490000000000012e-06,-0.00032700000000000003
2.6530000000000015e-06,-0.00046100000000000004
2.657000000000002e-06,-0.00093
2.661000000000002e-06,-0.00093
2.6650000000000007e-06,-0.000528
2.669000000000001e-06,-0.00032700000000000003
2.6730000000000013e-06,-0.000662
2.6770000000000016e-06,-0.000997
2.681000000000002e-06,-0.000796
2.6850000000000006e-06,-0.00032700000000000003
2.689000000000001e-06,-0.00046100000000000004
2.693000000000001e-06,-0.00093
2.6970000000000015e-06,-0.00093
2.7010000000000018e-06,-0.000528
2.705000000000002e-06,-0.00026000000000000003
2.7090000000000007e-06,-0.000662
2.713000000000001e-06,-0.000997
2.7170000000000013e-06,-0.000796
2.7210000000000016e-06,-0.00032700000000000003
2.725000000000002e-06,-0.00046100000000000004
2.7290000000000005e-06,-0.00093
2.7330000000000008e-06,-0.00093
2.737000000000001e-06,-0.000528
2.7410000000000014e-06,-0.00032700000000000003
2.7450000000000017e-06,-0.000729
2.749000000000002e-06,-0.000997
2.7530000000000006e-06,-0.000796
2.757000000000001e-06,-0.00032700000000000003
2.761000000000001e-06,-0.00046100000000000004
2.7650000000000015e-06,-0.00093
2.7690000000000018e-06,-0.00093
2.773000000000002e-06,-0.000528
2.7770000000000007e-06,-0.00032700000000000003
2.781000000000001e-06,-0.000729
2.7850000000000013e-06,-0.00093
2.7890000000000016e-06,-0.000729
2.793000000000002e-06,-0.00032700000000000003
2.7970000000000005e-06,-0.00046100000000000004
2.801000000000001e-06,-0.000863
2.805000000000001e-06,-0.00093
2.8090000000000014e-06,-0.000528
2.8130000000000017e-06,-0.00032700000000000003
2.817000000000002e-06,-0.000729
2.8210000000000006e-06,-0.00093
2.825000000000001e-06,-0.000729
2.829000000000001e-06,-0.00032700000000000003
2.8330000000000015e-06,-0.00046100000000000004
2.837000000000002e-06,-0.000863
2.841000000000002e-06,-0.00093
2.8450000000000007e-06,-0.000528
2.849000000000001e-06,-0.00039400000000000004
2.8530000000000013e-06,-0.000729
2.8570000000000016e-06,-0.00093
2.861000000000002e-06,-0.000729
2.8650000000000005e-06,-0.00039400000000000004
2.869000000000001e-06,-0.000528
2.873000000000001e-06,-0.00093
2.8770000000000014e-06,-0.00093
2.8810000000000017e-06,-0.000528
2.885000000000002e-06,-0.00039400000000000004
2.8890000000000006e-06,-0.000729
2.893000000000001e-06,-0.00093
2.8970000000000012e-06,-0.000662
2.9010000000000015e-06,-0.00039400000000000004
2.905000000000002e-06,-0.000528
2.909000000000002e-06,-0.000863
2.9130000000000007e-06,-0.000863
2.917000000000001e-06,-0.00046100000000000004
2.9210000000000013e-06,-0.00039400000000000004
2.9250000000000016e-06,-0.000729
2.929000000000002e-06,-0.00093
2.9330000000000005e-06,-0.000662
2.937000000000001e-06,-0.00032700000000000003
2.941000000000001e-06,-0.000528
2.9450000000000014e-06,-0.000863
2.9490000000000018e-06,-0.000796
2.953000000000002e-06,-0.00046100000000000004
2.9570000000000007e-06,-0.00039400000000000004
2.961000000000001e-06,-0.000729
2.9650000000000013e-06,-0.00093
2.9690000000000016e-06,-0.000595
2.973000000000002e-06,-0.00032700000000000003
2.977000000000002e-06,-0.000528
2.9810000000000008e-06,-0.000863
2.985000000000001e-06,-0.000796
2.9890000000000014e-06,-0.00046100000000000004
2.9930000000000017e-06,-0.00039400000000000004
2.997000000000002e-06,-0.000729
3.0010000000000006e-06,-0.000863
3.005000000000001e-06,-0.000595
3.009000000000001e-06,-0.00032700000000000003
3.0130000000000015e-06,-0.000528
3.0170000000000018e-06,-0.000863
3.021000000000002e-06,-0.000796
3.0250000000000007e-06,-0.00046100000000000004
3.029000000000001e-06,-0.00039400000000000004
3.0330000000000013e-06,-0.000729
3.0370000000000016e-06,-0.000863
3.041000000000002e-06,-0.000595
3.0450000000000005e-06,-0.00039400000000000004
3.049000000000001e-06,-0.000595
3.053000000000001e-06,-0.000863
3.0570000000000014e-06,-0.000729
3.0610000000000017e-06,-0.00039400000000000004
3.065000000000002e-06,-0.00046100000000000004
3.0690000000000006e-06,-0.000729
3.073000000000001e-06,-0.000863
3.077000000000001e-06,-0.000528
3.0810000000000015e-06,-0.00039400000000000004
3.085000000000002e-06,-0.000595
3.089000000000002e-06,-0.000863
3.0930000000000007e-06,-0.000729
3.097000000000001e-06,-0.00039400000000000004
3.1010000000000013e-06,-0.00046100000000000004
3.1050000000000016e-06,-0.000796
3.109000000000002e-06,-0.000863
3.1130000000000005e-06,-0.000528
3.117000000000001e-06,-0.00039400000000000004
3.121000000000001e-06,-0.000662
3.1250000000000014e-06,-0.000863
3.1290000000000017e-06,-0.000662
3.133000000000002e-06,-0.00039400000000000004
3.1370000000000006e-06,-0.000528
3.141000000000001e-06,-0.000796
3.1450000000000012e-06,-0.000796
3.1490000000000015e-06,-0.00046100000000000004
3.153000000000002e-06,-0.00039400000000000004
3.157000000000002e-06,-0.000662
3.1610000000000007e-06,-0.000863
3.165000000000001e-06,-0.000662
3.1690000000000013e-06,-0.00039400000000000004
3.1730000000000016e-06,-0.000528
3.177000000000002e-06,-0.000796
3.1810000000000005e-06,-0.000729
3.185000000000001e-06,-0.00046100000000000004
3.189000000000001e-06,-0.00039400000000000004
3.1930000000000014e-06,-0.000662
3.1970000000000017e-06,-0.000796
3.201000000000002e-06,-0.000595
3.2050000000000007e-06,-0.00039400000000000004
3.209000000000001e-06,-0.000528
3.2130000000000013e-06,-0.000796
3.2170000000000016e-06,-0.000729
3.221000000000002e-06,-0.00046100000000000004
3.225000000000002e-06,-0.00046100000000000004
3.2290000000000008e-06,-0.000729
3.233000000000001e-06,-0.000796
3.2370000000000014e-06,-0.000595
3.2410000000000017e-06,-0.00039400000000000004
3.245000000000002e-06,-0.000595
3.2490000000000006e-06,-0.000796
3.253000000000001e-06,-0.000662
3.257000000000001e-06,-0.00046100000000000004
3.2610000000000015e-06,-0.00046100000000000004
3.2650000000000018e-06,-0.000729
3.269000000000002e-06,-0.000796
3.2730000000000007e-06,-0.000528
3.277000000000001e-06,-0.00039400000000000004
3.2810000000000013e-06,-0.000595
3.2850000000000016e-06,-0.000796
3.289000000000002e-06,-0.000662
3.293000000000002e-06,-0.00039400000000000004
3.297000000000001e-06,-0.00046100000000000004
3.301000000000001e-06,-0.000729
3.3050000000000014e-06,-0.000729
3.3090000000000017e-06,-0.000528
3.313000000000002e-06,-0.00039400000000000004
3.3170000000000006e-06,-0.000595
3.321000000000001e-06,-0.000796
3.325000000000001e-06,-0.000595
3.3290000000000015e-06,-0.00039400000000000004
3.333000000000002e-06,-0.000528
3.337000000000002e-06,-0.000729
3.3410000000000007e-06,-0.000729
3.345000000000001e-06,-0.00046100000000000004
3.3490000000000013e-06,-0.00046100000000000004
3.3530000000000016e-06,-0.000662
3.357000000000002e-06,-0.000729
3.3610000000000005e-06,-0.000595
3.365000000000001e-06,-0.00039400000000000004
3.369000000000001e-06,-0.000528
3.3730000000000014e-06,-0.000729
3.3770000000000017e-06,-0.000662
3.381000000000002e-06,-0.00046100000000000004
3.3850000000000006e-06,-0.00046100000000000004
3.389000000000001e-06,-0.000662
3.3930000000000012e-06,-0.000729
3.3970000000000015e-06,-0.000528
3.401000000000002e-06,-0.00046100000000000004
3.405000000000002e-06,-0.000595
3.4090000000000007e-06,-0.000796
3.413000000000001e-06,-0.000662
3.4170000000000013e-06,-0.00046100000000000004
3.4210000000000016e-06,-0.000528
3.425000000000002e-06,-0.000662
3.4290000000000005e-06,-0.000729
3.433000000000001e-06,-0.000528
3.437000000000001e-06,-0.00046100000000000004
3.4410000000000014e-06,-0.000595
3.4450000000000017e-06,-0.000729
3.449000000000002e-06,-0.000595
3.4530000000000007e-06,-0.00046100000000000004
3.457000000000001e-06,-0.000528
3.4610000000000013e-06,-0.000729
3.4650000000000016e-06,-0.000729
3.469000000000002e-06,-0.000528
3.473000000000002e-06,-0.00046100000000000004
3.4770000000000008e-06,-0.000662
3.481000000000001e-06,-0.000729
3.4850000000000014e-06,-0.000595
3.4890000000000017e-06,-0.00046100000000000004
3.493000000000002e-06,-0.000528
3.4970000000000006e-06,-0.000662
3.501000000000001e-06,-0.000662
3.505000000000001e-06,-0.00046100000000000004
3.5090000000000015e-06,-0.00046100000000000004
3.5130000000000018e-06,-0.000662
3.517000000000002e-06,-0.000729
3.5210000000000007e-06,-0.000528
3.525000000000001e-06,-0.00046100000000000004
3.5290000000000013e-06,-0.000595
3.5330000000000016e-06,-0.000729
3.537000000000002e-06,-0.000662
3.541000000000002e-06,-0.00046100000000000004
3.5450000000000008e-06,-0.000528
3.549000000000001e-06,-0.000662
3.5530000000000014e-06,-0.000662
3.5570000000000017e-06,-0.000528
3.561000000000002e-06,-0.00046100000000000004
3.5650000000000006e-06,-0.000595
3.569000000000001e-06,-0.000729
3.573000000000001e-06,-0.000595
3.5770000000000015e-06,-0.00046100000000000004
3.581000000000002e-06,-0.000528
3.585000000000002e-06,-0.000662
3.5890000000000007e-06,-0.000662
3.593000000000001e-06,-0.00046100000000000004
3.5970000000000013e-06,-0.00046100000000000004
3.6010000000000016e-06,-0.000595
3.605000000000002e-06,-0.000662
3.609000000000002e-06,-0.000528
3.613000000000001e-06,-0.00046100000000000004
3.617000000000001e-06,-0.000528
3.6210000000000014e-06,-0.000662
3.6250000000000017e-06,-0.000595
3.629000000000002e-06,-0.00046100000000000004
3.6330000000000006e-06,-0.00046100000000000004
3.637000000000001e-06,-0.000662
3.6410000000000012e-06,-0.000662
3.6450000000000015e-06,-0.000528
3.649000000000002e-06,-0.00046100000000000004
3.653000000000002e-06,-0.000595
3.6570000000000007e-06,-0.000662
3.661000000000001e-06,-0.000528
3.6650000000000013e-06,-0.00046100000000000004
3.6690000000000016e-06,-0.000528
3.673000000000002e-06,-0.000662
3.6770000000000005e-06,-0.000662
3.681000000000001e-06,-0.000528
3.685000000000001e-06,-0.00046100000000000004
3.6890000000000014e-06,-0.000595
3.6930000000000017e-06,-0.000662
3.697000000000002e-06,-0.000528
3.7010000000000006e-06,-0.00046100000000000004
3.705000000000001e-06,-0.000528
3.7090000000000012e-06,-0.000662
3.7130000000000016e-06,-0.000595
3.717000000000002e-06,-0.00046100000000000004
3.721000000000002e-06,-0.000528
3.7250000000000008e-06,-0.000662
3.729000000000001e-06,-0.000662
3.7330000000000014e-06,-0.000528
3.7370000000000017e-06,-0.00046100000000000004
3.741000000000002e-06,-0.000595
3.7450000000000006e-06,-0.000662
3.749000000000001e-06,-0.000595
3.753000000000001e-06,-0.00046100000000000004
3.7570000000000015e-06,-0.000528
3.7610000000000018e-06,-0.000662
3.765000000000002e-06,-0.000662
3.7690000000000007e-06,-0.000528
3.773000000000001e-06,-0.000528
3.7770000000000013e-06,-0.000595
3.7810000000000016e-06,-0.000662
3.785000000000002e-06,-0.000595
3.789000000000002e-06,-0.000528
3.7930000000000008e-06,-0.000595
3.797000000000001e-06,-0.000662
3.8010000000000014e-06,-0.000595
3.8050000000000017e-06,-0.00046100000000000004
3.809000000000002e-06,-0.00046100000000000004
3.8130000000000006e-06,-0.000595
3.817000000000001e-06,-0.000595
3.821000000000001e-06,-0.000528
3.8250000000000015e-06,-0.00046100000000000004
3.829000000000002e-06,-0.000595
3.833000000000002e-06,-0.000662
3.837000000000001e-06,-0.000595
3.841000000000001e-06,-0.000528
3.845000000000001e-06,-0.000528
3.849000000000002e-06,-0.000662
3.853000000000002e-06,-0.000595
3.857000000000002e-06,-0.00046100000000000004
3.861000000000001e-06,-0.00046100000000000004
3.865000000000001e-06,-0.000595
3.869000000000001e-06,-0.000662
3.873000000000002e-06,-0.000528
3.877000000000002e-06,-0.00046100000000000004
3.881000000000001e-06,-0.000595
3.885000000000001e-06,-0.000662
3.889000000000001e-06,-0.000595
3.8930000000000015e-06,-0.000528
3.897000000000002e-06,-0.000528
3.901000000000002e-06,-0.000595
3.905000000000001e-06,-0.000595
3.909000000000001e-06,-0.000528
3.913000000000001e-06,-0.00046100000000000004
3.917000000000002e-06,-0.000595
3.921000000000002e-06,-0.000662
3.925000000000002e-06,-0.000528
3.929000000000001e-06,-0.00046100000000000004
3.933000000000001e-06,-0.000528
3.9370000000000014e-06,-0.000662
3.941000000000002e-06,-0.000595
3.945000000000002e-06,-0.000528
3.949000000000001e-06,-0.000528
3.953000000000001e-06,-0.000595
3.957000000000001e-06,-0.000662
3.9610000000000015e-06,-0.000528
3.965000000000002e-06,-0.000528
3.969000000000002e-06,-0.000595
3.973000000000001e-06,-0.000595
3.977000000000001e-06,-0.000528
3.981000000000001e-06,-0.00046100000000000004
3.985000000000002e-06,-0.000528
3.989000000000002e-06,-0.000595
3.9930000000000006e-06,-0.000595
3.997000000000001e-06,-0.000528
4.001000000000001e-06,-0.00046100000000000004
4.0050000000000015e-06,-0.000595
4.009000000000002e-06,-0.000595
4.013000000000002e-06,-0.000528
4.017000000000001e-06,-0.00046100000000000004
4.021000000000001e-06,-0.000528
4.025000000000001e-06,-0.000595
4.0290000000000016e-06,-0.000595
4.033000000000002e-06,-0.00046100000000000004
4.037000000000002e-06,-0.000528
4.041000000000001e-06,-0.000595
4.045000000000001e-06,-0.000595
4.049000000000001e-06,-0.000528
4.053000000000002e-06,-0.00046100000000000004
4.057000000000002e-06,-0.000595
4.061000000000001e-06,-0.000595
4.065000000000001e-06,-0.000528
4.069000000000001e-06,-0.00046100000000000004
4.0730000000000015e-06,-0.000528
4.077000000000002e-06,-0.000595
4.081000000000002e-06,-0.000595
4.085000000000001e-06,-0.000528
4.089000000000001e-06,-0.000528
4.093000000000001e-06,-0.000595
4.097000000000002e-06,-0.000595
4.101000000000002e-06,-0.000528
4.105000000000002e-06,-0.000528
4.109000000000001e-06,-0.000595
4.113000000000001e-06,-0.000595
4.117000000000001e-06,-0.000595
4.121000000000002e-06,-0.000528
4.125000000000002e-06,-0.000528
4.129000000000001e-06,-0.000595
4.133000000000001e-06,-0.000595
4.137000000000001e-06,-0.000528
4.1410000000000015e-06,-0.000528
4.145000000000002e-06,-0.000595
4.149000000000002e-06,-0.000595
4.153000000000001e-06,-0.000528
4.157000000000001e-06,-0.000528
4.161000000000001e-06,-0.000595
4.165000000000002e-06,-0.000662
4.169000000000002e-06,-0.000595
4.173000000000002e-06,-0.00046100000000000004
4.177000000000001e-06,-0.000528
4.181000000000001e-06,-0.000595
4.1850000000000014e-06,-0.000595
4.189000000000002e-06,-0.000528
4.193000000000002e-06,-0.000528
4.197000000000001e-06,-0.000595
4.201000000000001e-06,-0.000595
4.205000000000001e-06,-0.000528
4.2090000000000015e-06,-0.000528
4.213000000000002e-06,-0.000528
4.217000000000002e-06,-0.000595
4.221000000000001e-06,-0.000595
4.225000000000001e-06,-0.000528
4.229000000000001e-06,-0.000528
4.233000000000002e-06,-0.000595
4.237000000000002e-06,-0.000595
4.2410000000000006e-06,-0.000528
4.245000000000001e-06,-0.000528
4.249000000000001e-06,-0.000595
4.2530000000000015e-06,-0.000595
4.257000000000002e-06,-0.000528
4.261000000000002e-06,-0.000528
4.265000000000001e-06,-0.000528
4.269000000000001e-06,-0.000595
4.273000000000001e-06,-0.000595
4.2770000000000016e-06,-0.000528
4.281000000000002e-06,-0.000528
4.285000000000002e-06,-0.000595
4.289000000000001e-06,-0.000595
4.293000000000001e-06,-0.000528
4.297000000000001e-06,-0.000528
4.301000000000002e-06,-0.000595
4.305000000000002e-06,-0.000595
4.309000000000001e-06,-0.000528
4.313000000000001e-06,-0.00046100000000000004
4.317000000000001e-06,-0.000528
4.3210000000000015e-06,-0.000595
4.325000000000002e-06,-0.000595
4.329000000000002e-06,-0.000528
4.333000000000001e-06,-0.000528
4.337000000000001e-06,-0.000595
4.341000000000001e-06,-0.000595
4.345000000000002e-06,-0.000528
4.349000000000002e-06,-0.000528
4.353000000000002e-06,-0.000528
4.357000000000001e-06,-0.000595
4.361000000000001e-06,-0.000595
4.365000000000001e-06,-0.000528
4.369000000000002e-06,-0.000528
4.373000000000002e-06,-0.000595
4.377000000000001e-06,-0.000528
4.381000000000001e-06,-0.000528
4.385000000000001e-06,-0.000528
4.3890000000000015e-06,-0.000595
4.393000000000002e-06,-0.000595
4.397000000000002e-06,-0.000528
4.401000000000001e-06,-0.000528
4.405000000000001e-06,-0.000595
4.409000000000001e-06,-0.000595
4.413000000000002e-06,-0.000595
4.417000000000002e-06,-0.000528
4.421000000000002e-06,-0.000528
4.425000000000001e-06,-0.000595
4.429000000000001e-06,-0.000595
4.4330000000000014e-06,-0.000528
4.437000000000002e-06,-0.000528
4.441000000000002e-06,-0.000595
4.445000000000001e-06,-0.000595
4.449000000000001e-06,-0.000528
4.453000000000001e-06,-0.000528
4.4570000000000015e-06,-0.000595
4.461000000000002e-06,-0.000595
4.465000000000002e-06,-0.000595
4.469000000000001e-06,-0.000528
4.473000000000001e-06,-0.000528
4.477000000000001e-06,-0.000595
4.481000000000002e-06,-0.000595
4.485000000000002e-06,-0.000528
4.489000000000002e-06,-0.000528
4.493000000000001e-06,-0.000595
4.497000000000001e-06,-0.000595
4.5010000000000015e-06,-0.000595
4.505000000000002e-06,-0.000595
4.509000000000002e-06,-0.000595
4.513000000000001e-06,-0.000595
4.517000000000001e-06,-0.000595
4.521000000000001e-06,-0.000528
4.5250000000000016e-06,-0.000595
4.529000000000002e-06,-0.000595
4.533000000000002e-06,-0.000595
4.537000000000001e-06,-0.000528
4.541000000000001e-06,-0.000528
4.545000000000001e-06,-0.000595
4.549000000000002e-06,-0.000595
4.553000000000002e-06,-0.000528
4.557000000000001e-06,-0.000528
4.561000000000001e-06,-0.000595
4.565000000000001e-06,-0.000595
4.5690000000000015e-06,-0.000595
4.573000000000002e-06,-0.000528
4.577000000000002e-06,-0.000528
4.581000000000001e-06,-0.000595
4.585000000000001e-06,-0.000595
4.589000000000001e-06,-0.000528
4.593000000000002e-06,-0.000528
4.597000000000002e-06,-0.000595
4.601000000000002e-06,-0.000595
4.605000000000001e-06,-0.000528
4.609000000000001e-06,-0.000528
4.613000000000001e-06,-0.000595
4.617000000000002e-06,-0.000595
4.621000000000002e-06,-0.000595
4.625000000000001e-06,-0.000528
4.629000000000001e-06,-0.000595
4.633000000000001e-06,-0.000595
4.6370000000000015e-06,-0.000595
4.641000000000002e-06,-0.000528
4.645000000000002e-06,-0.000528
4.649000000000001e-06,-0.000595
4.653000000000001e-06,-0.000595
4.657000000000001e-06,-0.000528
4.661000000000002e-06,-0.000528
4.665000000000002e-06,-0.000595
4.669000000000002e-06,-0.000595
4.673000000000001e-06,-0.000595
4.677000000000001e-06,-0.000595
4.6810000000000014e-06,-0.000595
4.685000000000002e-06,-0.000595
4.689000000000002e-06,-0.000528
4.693000000000001e-06,-0.000528
4.697000000000001e-06,-0.000528
4.701000000000001e-06,-0.000595
4.7050000000000015e-06,-0.000595
4.709000000000002e-06,-0.000528
4.713000000000002e-06,-0.000528
4.717000000000001e-06,-0.000528
4.721000000000001e-06,-0.000595
4.725000000000001e-06,-0.000528
4.729000000000002e-06,-0.000528
4.733000000000002e-06,-0.000595
4.737000000000002e-06,-0.000595
4.741000000000001e-06,-0.000595
4.745000000000001e-06,-0.000528
4.7490000000000015e-06,-0.000528
4.753000000000002e-06,-0.000595
4.757000000000002e-06,-0.000595
4.761000000000001e-06,-0.000528
4.765000000000001e-06,-0.000528
4.769000000000001e-06,-0.000595
4.7730000000000016e-06,-0.000595
4.777000000000002e-06,-0.000595
4.781000000000002e-06,-0.000528
4.785000000000001e-06,-0.000595
4.789000000000001e-06,-0.000595
4.793000000000001e-06,-0.000528
4.797000000000002e-06,-0.000528
4.801000000000002e-06,-0.000595
4.805000000000002e-06,-0.000595
4.809000000000001e-06,-0.000595
4.813000000000001e-06,-0.000528
4.8170000000000015e-06,-0.000528
4.821000000000002e-06,-0.000595
4.825000000000002e-06,-0.000595
4.829000000000001e-06,-0.000528
4.833000000000001e-06,-0.000595
4.837000000000001e-06,-0.000595
4.841000000000002e-06,-0.000595
4.845000000000002e-06,-0.000595
4.849000000000002e-06,-0.000528
4.853000000000001e-06,-0.000595
4.857000000000001e-06,-0.000595
4.861000000000001e-06,-0.000595
4.865000000000002e-06,-0.000528
4.869000000000002e-06,-0.000528
4.873000000000001e-06,-0.000595
4.877000000000001e-06,-0.000595
4.881000000000001e-06,-0.000528
4.8850000000000015e-06,-0.000528
4.889000000000002e-06,-0.000595
4.893000000000002e-06,-0.000595
4.897000000000001e-06,-0.000528
4.901000000000001e-06,-0.000528
4.905000000000001e-06,-0.000595
4.909000000000002e-06,-0.000595
4.913000000000002e-06,-0.000595
4.917000000000002e-06,-0.000595
4.921000000000001e-06,-0.000595
4.925000000000001e-06,-0.000595
4.9290000000000014e-06,-0.000595
4.933000000000002e-06,-0.000595
4.937000000000002e-06,-0.000595
4.941000000000001e-06,-0.000595
4.945000000000001e-06,-0.000595
4.949000000000001e-06,-0.000595
4.9530000000000015e-06,-0.000595
4.957000000000002e-06,-0.000595
4.961000000000002e-06,-0.000595
4.965000000000001e-06,-0.000595
4.969000000000001e-06,-0.000595
4.973000000000001e-06,-0.000595
4.977000000000002e-06,-0.000595
4.981000000000002e-06,-0.000595
4.985000000000002e-06,-0.000595
4.989000000000001e-06,-0.000595
4.993000000000001e-06,-0.000595
4.9970000000000015e-06,-0.000595
5.001000000000002e-06,-0.000595
5.005000000000002e-06,-0.000595
5.009000000000001e-06,-0.000595
5.013000000000001e-06,-0.000595
5.017000000000001e-06,-0.000595
5.0210000000000016e-06,-0.000528
5.025000000000002e-06,-0.000595
5.029000000000002e-06,-0.000595
5.033000000000001e-06,-0.000595
5.037000000000001e-06,-0.000528
5.041000000000001e-06,-0.000528
5.045000000000002e-06,-0.000595
5.049000000000002e-06,-0.000595
5.053000000000002e-06,-0.000595
5.057000000000001e-06,-0.000528
5.061000000000001e-06,-0.000595
5.0650000000000015e-06,-0.000595
5.069000000000002e-06,-0.000595
5.073000000000002e-06,-0.000595
5.077000000000001e-06,-0.000595
5.081000000000001e-06,-0.000595
5.085000000000001e-06,-0.000595
5.089000000000002e-06,-0.000595
5.093000000000002e-06,-0.000595
5.097000000000002e-06,-0.000595
5.101000000000001e-06,-0.000595
5.105000000000001e-06,-0.000595
5.109000000000001e-06,-0.000595
5.113000000000002e-06,-0.000595
5.117000000000002e-06,-0.000595
5.121000000000002e-06,-0.000528
5.125000000000001e-06,-0.000528
5.129000000000001e-06,-0.000595
5.1330000000000015e-06,-0.000595
5.137000000000002e-06,-0.000595
5.141000000000002e-06,-0.000595
5.145000000000001e-06,-0.000595
5.149000000000001e-06,-0.000595
5.153000000000001e-06,-0.000595
5.157000000000002e-06,-0.000595
5.161000000000002e-06,-0.000595
5.165000000000002e-06,-0.000595
5.169000000000001e-06,-0.000595
5.173000000000001e-06,-0.000595
5.1770000000000014e-06,-0.000595
5.181000000000002e-06,-0.000595
5.185000000000002e-06,-0.000595
5.189000000000001e-06,-0.000595
5.193000000000001e-06,-0.000595
5.197000000000001e-06,-0.000595
5.2010000000000015e-06,-0.000595
5.205000000000002e-06,-0.000595
5.209000000000002e-06,-0.000595
5.213000000000001e-06,-0.000595
5.217000000000001e-06,-0.000595
5.221000000000001e-06,-0.000595
5.225000000000002e-06,-0.000595
5.229000000000002e-06,-0.000595
5.233000000000002e-06,-0.000595
5.237000000000001e-06,-0.000595
5.241000000000001e-06,-0.000595
5.2450000000000015e-06,-0.000595
5.249000000000002e-06,-0.000595
5.253000000000002e-06,-0.000595
5.257000000000001e-06,-0.000595
5.261000000000001e-06,-0.000595
5.265000000000001e-06,-0.000595
5.2690000000000016e-06,-0.000595
5.273000000000002e-06,-0.000595
5.277000000000002e-06,-0.000595
5.281000000000001e-06,-0.000595
5.285000000000001e-06,-0.000595
5.289000000000001e-06,-0.000595
5.293000000000002e-06,-0.000595
5.297000000000002e-06,-0.000595
5.301000000000002e-06,-0.000595
5.305000000000001e-06,-0.000595
5.309000000000001e-06,-0.000595
5.3130000000000015e-06,-0.000595
5.317000000000002e-06,-0.000595
5.321000000000002e-06,-0.000595
5.325000000000001e-06,-0.000595
5.329000000000001e-06,-0.000595
5.333000000000001e-06,-0.000595
5.337000000000002e-06,-0.000595
5.341000000000002e-06,-0.000595
5.345000000000002e-06,-0.000595
5.349000000000001e-06,-0.000595
5.353000000000001e-06,-0.000595
5.357000000000001e-06,-0.000595
5.361000000000002e-06,-0.000595
5.365000000000002e-06,-0.000595
5.369000000000002e-06,-0.000595
5.373000000000001e-06,-0.000662
5.377000000000001e-06,-0.000595
5.3810000000000015e-06,-0.000595
5.385e-06,-0.000595
5.389000000000002e-06,-0.000595
5.393000000000001e-06,-0.000595
5.397000000000003e-06,-0.000595
5.401000000000001e-06,-0.000595
5.405e-06,-0.000595
5.409000000000002e-06,-0.000595
5.4130000000000005e-06,-0.000595
5.4170000000000025e-06,-0.000595
5.421000000000001e-06,-0.000595
5.425000000000003e-06,-0.000595
5.429000000000002e-06,-0.000595
5.433e-06,-0.000595
5.437000000000002e-06,-0.000595
5.441000000000001e-06,-0.000595
5.445000000000003e-06,-0.000595
5.4490000000000015e-06,-0.000595
5.453e-06,-0.000595
5.457000000000002e-06,-0.000595
5.461000000000001e-06,-0.000595
5.465000000000003e-06,-0.000595
5.469000000000001e-06,-0.000662
5.473e-06,-0.000595
5.477000000000002e-06,-0.000595
5.4810000000000005e-06,-0.000595
5.4850000000000025e-06,-0.000595
5.489000000000001e-06,-0.000595
5.493000000000003e-06,-0.000595
5.497000000000002e-06,-0.000595
5.501e-06,-0.000595
5.505000000000002e-06,-0.000595
5.509000000000001e-06,-0.000595
5.513000000000003e-06,-0.000595
5.5170000000000016e-06,-0.000595
5.521e-06,-0.000662
5.525000000000002e-06,-0.000595
5.529000000000001e-06,-0.000595
5.533000000000003e-06,-0.000595
5.537000000000001e-06,-0.000595
5.541e-06,-0.000595
5.545000000000002e-06,-0.000595
5.5490000000000006e-06,-0.000595
5.5530000000000026e-06,-0.000595
5.557000000000001e-06,-0.000595
5.561000000000003e-06,-0.000595
5.565000000000002e-06,-0.000595
5.569e-06,-0.000595
5.573000000000002e-06,-0.000595
5.577000000000001e-06,-0.000662
5.581000000000003e-06,-0.000595
5.585000000000002e-06,-0.000595
5.589e-06,-0.000662
5.593000000000002e-06,-0.000662
5.597000000000001e-06,-0.000595
5.601000000000003e-06,-0.000595
5.605000000000001e-06,-0.000595
5.609e-06,-0.000595
5.613000000000002e-06,-0.000595
5.617000000000001e-06,-0.000595
5.621000000000003e-06,-0.000595
5.625000000000001e-06,-0.000595
5.629e-06,-0.000595
5.633000000000002e-06,-0.000595
5.637e-06,-0.000595
5.641000000000002e-06,-0.000595
5.645000000000001e-06,-0.000595
5.649000000000003e-06,-0.000595
5.653000000000002e-06,-0.000595
5.657e-06,-0.000595
5.661000000000002e-06,-0.000595
5.665000000000001e-06,-0.000595
5.669000000000003e-06,-0.000595
5.673000000000001e-06,-0.000595
5.677e-06,-0.000595
5.681000000000002e-06,-0.000595
5.685000000000001e-06,-0.000595
5.689000000000003e-06,-0.000595
5.693000000000001e-06,-0.000662
5.697e-06,-0.000662
5.701000000000002e-06,-0.000662
5.7050000000000004e-06,-0.000595
5.7090000000000024e-06,-0.000595
5.713000000000001e-06,-0.000595
5.717000000000003e-06,-0.000595
5.721000000000002e-06,-0.000595
5.725e-06,-0.000662
5.729000000000002e-06,-0.000662
5.733000000000001e-06,-0.000662
5.737000000000003e-06,-0.000662
5.7410000000000014e-06,-0.000595
5.745e-06,-0.000595
5.749000000000002e-06,-0.000595
5.753000000000001e-06,-0.000595
5.757000000000003e-06,-0.000595
5.761000000000001e-06,-0.000595
5.765e-06,-0.000595
5.769000000000002e-06,-0.000662
5.7730000000000005e-06,-0.000662
5.7770000000000025e-06,-0.000662
5.781000000000001e-06,-0.000595
5.785000000000003e-06,-0.000595
5.789000000000002e-06,-0.000595
5.793e-06,-0.000595
5.797000000000002e-06,-0.000595
5.801000000000001e-06,-0.000595
5.805000000000003e-06,-0.000595
5.8090000000000015e-06,-0.000595
5.813e-06,-0.000595
5.817000000000002e-06,-0.000595
5.821000000000001e-06,-0.000662
5.825000000000003e-06,-0.000662
5.829000000000001e-06,-0.000662
5.833e-06,-0.000662
5.837000000000002e-06,-0.000662
5.8410000000000005e-06,-0.000662
5.8450000000000025e-06,-0.000662
5.849000000000001e-06,-0.000662
5.853000000000003e-06,-0.000662
5.857000000000002e-06,-0.000662
5.861e-06,-0.000662
5.865000000000002e-06,-0.000662
5.869000000000001e-06,-0.000662
5.873000000000003e-06,-0.000662
5.8770000000000015e-06,-0.000662
5.881e-06,-0.000662
5.885000000000002e-06,-0.000662
5.889000000000001e-06,-0.000662
5.893000000000003e-06,-0.000662
5.897000000000001e-06,-0.000662
5.901e-06,-0.000662
5.905000000000002e-06,-0.000662
5.9090000000000005e-06,-0.000662
5.9130000000000025e-06,-0.000662
5.917000000000001e-06,-0.000662
5.921000000000003e-06,-0.000662
5.925000000000002e-06,-0.000662
5.929e-06,-0.000662
5.933000000000002e-06,-0.000595
5.937000000000001e-06,-0.000595
5.941000000000003e-06,-0.000662
5.9450000000000015e-06,-0.000662
5.949e-06,-0.000662
5.953000000000002e-06,-0.000662
5.957000000000001e-06,-0.000595
5.961000000000003e-06,-0.000595
5.965000000000001e-06,-0.000595
5.969e-06,-0.000595
5.973000000000002e-06,-0.000595
5.9770000000000005e-06,-0.000595
5.9810000000000025e-06,-0.000662
5.985000000000001e-06,-0.000662
5.989000000000003e-06,-0.000662
5.993000000000002e-06,-0.000662
5.997e-06,-0.000662
6.001000000000002e-06,-0.000662
6.005000000000001e-06,-0.000662
6.009000000000003e-06,-0.000662
6.0130000000000016e-06,-0.000662
6.017e-06,-0.000662
6.021000000000002e-06,-0.000595
6.025000000000001e-06,-0.000595
6.029000000000003e-06,-0.000595
6.033000000000001e-06,-0.000662
6.037e-06,-0.000662
6.041000000000002e-06,-0.000662
6.0450000000000006e-06,-0.000662
6.0490000000000026e-06,-0.000595
6.053000000000001e-06,-0.000595
6.057000000000003e-06,-0.000595
6.061000000000002e-06,-0.000595
6.065e-06,-0.000595
6.069000000000002e-06,-0.000662
6.073000000000001e-06,-0.000662
6.077000000000003e-06,-0.000662
6.081000000000002e-06,-0.000662
6.085e-06,-0.000595
6.089000000000002e-06,-0.000595
6.093000000000001e-06,-0.000662
6.097000000000003e-06,-0.000662
6.101000000000001e-06,-0.000662
6.105e-06,-0.000662
6.109000000000002e-06,-0.000662
6.113000000000001e-06,-0.000662
6.117000000000003e-06,-0.000662
