"Time (s)","Voltage (V)"
0.0,0.002383368
4e-09,0.000375
8e-09,-0.0024701880000000003
1.2000000000000002e-08,-0.0034743720000000003
1.6e-08,-0.001466004
2e-08,0.0013791839999999999
2.4000000000000003e-08,0.002718096
2.8000000000000003e-08,0.001044456
3.2e-08,-0.0019680960000000003
3.6000000000000005e-08,-0.003641736
4e-08,-0.0024701880000000003
4.4000000000000004e-08,0.000542364
4.8000000000000006e-08,0.002383368
5.2e-08,0.0013791839999999999
5.6000000000000005e-08,-0.0012986400000000002
6.000000000000001e-08,-0.0038091000000000006
6.4e-08,-0.003139644
6.8e-08,4.0271999999999997e-05
7.200000000000001e-08,0.003220188
7.6e-08,0.0047264640000000005
8e-08,0.0042243720000000005
8.400000000000001e-08,0.00288546
8.800000000000001e-08,0.000877092
9.2e-08,-0.00213546
9.600000000000001e-08,-0.006486924
1.0000000000000001e-07,-0.010336296
1.04e-07,-0.012009936
1.08e-07,-0.010838388000000001
1.1200000000000001e-07,-0.006989016
1.16e-07,-0.001466004
1.2000000000000002e-07,0.004559100000000001
1.24e-07,0.009914748000000001
1.28e-07,0.012592572000000002
1.3200000000000002e-07,0.01209048
1.36e-07,0.008743200000000001
1.4e-07,0.003220188
1.4400000000000002e-07,-0.002804916
1.48e-07,-0.008495292
1.52e-07,-0.0121773
1.5600000000000002e-07,-0.012846756
1.6e-07,-0.010168932
1.64e-07,-0.004980648
1.6800000000000002e-07,0.001546548
1.72e-07,0.008073744
1.7600000000000001e-07,0.011923116000000001
1.8000000000000002e-07,0.012759936000000001
1.84e-07,0.01041684
1.8800000000000002e-07,0.005563284000000001
1.9200000000000003e-07,-0.00046182000000000005
1.96e-07,-0.006821652
2.0000000000000002e-07,-0.011507844
2.04e-07,-0.013181484
2.08e-07,-0.011507844
2.1200000000000002e-07,-0.006989016
2.16e-07,-0.000629184
2.2e-07,0.005898012
2.2400000000000002e-07,0.010918932000000001
2.28e-07,0.012927300000000001
2.32e-07,0.011755752000000001
2.3600000000000002e-07,0.0077390160000000005
2.4000000000000003e-07,0.0018812759999999999
2.44e-07,-0.004478556
2.48e-07,-0.010001568
2.5200000000000003e-07,-0.01301412
2.56e-07,-0.012679392
2.6e-07,-0.009164748
2.6400000000000003e-07,-0.003139644
2.68e-07,0.003387552
2.72e-07,0.009412656
2.7600000000000004e-07,0.012592572000000002
2.8e-07,0.012425208
2.84e-07,0.009412656
2.8800000000000004e-07,0.004057008
2.92e-07,-0.00213546
2.96e-07,-0.008327928
3.0000000000000004e-07,-0.012344664
3.04e-07,-0.013181484
3.08e-07,-0.010671024
3.1200000000000004e-07,-0.00548274
3.16e-07,0.001044456
3.2e-07,0.007571652000000001
3.2400000000000004e-07,0.011755752000000001
3.28e-07,0.012759936000000001
3.32e-07,0.010584204
3.3600000000000004e-07,0.006065376000000001
3.4000000000000003e-07,-0.00012709199999999998
3.44e-07,-0.006486924
3.4800000000000005e-07,-0.01134048
3.5200000000000003e-07,-0.013181484
3.56e-07,-0.011675208
3.6000000000000005e-07,-0.0071563799999999995
3.6400000000000003e-07,-0.000629184
3.68e-07,0.0057306480000000005
3.7200000000000005e-07,0.010751568000000001
3.7600000000000003e-07,0.012759936000000001
3.8e-07,0.011588388000000002
3.8400000000000005e-07,0.007571652000000001
3.8800000000000003e-07,0.001546548
3.92e-07,-0.004813284
3.96e-07,-0.010168932
4.0000000000000003e-07,-0.01301412
4.04e-07,-0.012512028
4.08e-07,-0.008662656
4.1200000000000004e-07,-0.0024701880000000003
4.16e-07,0.004057008
4.2e-07,0.009747384000000001
4.2400000000000004e-07,0.012592572000000002
4.28e-07,0.01209048
4.32e-07,0.008743200000000001
4.3600000000000004e-07,0.003052824
4.4e-07,-0.003139644
4.44e-07,-0.009164748
4.4800000000000004e-07,-0.012679392
4.52e-07,-0.012846756
4.56e-07,-0.00966684
4.6000000000000004e-07,-0.003976464
4.64e-07,0.002550732
4.68e-07,0.008743200000000001
4.7200000000000004e-07,0.012257844
4.7600000000000003e-07,0.012425208
4.800000000000001e-07,0.00958002
4.84e-07,0.004391736
4.88e-07,-0.0019680960000000003
4.92e-07,-0.0079932
4.96e-07,-0.0121773
5.000000000000001e-07,-0.01301412
5.040000000000001e-07,-0.010671024
5.08e-07,-0.005315376
5.12e-07,0.0012118200000000002
5.16e-07,0.0077390160000000005
5.2e-07,0.011755752000000001
5.24e-07,0.012592572000000002
5.280000000000001e-07,0.010249476
5.32e-07,0.00539592
5.36e-07,-0.000629184
5.4e-07,-0.006989016
5.44e-07,-0.011507844
5.48e-07,-0.01301412
5.520000000000001e-07,-0.011173116
5.560000000000001e-07,-0.00631956
5.6e-07,0.000375
5.64e-07,0.0067348320000000005
5.68e-07,0.01125366
5.72e-07,0.012592572000000002
5.760000000000001e-07,0.010751568000000001
5.800000000000001e-07,0.0062327400000000005
5.84e-07,0.000207636
5.88e-07,-0.00631956
5.92e-07,-0.011173116
5.96e-07,-0.013181484
6.000000000000001e-07,-0.011507844
6.040000000000001e-07,-0.006989016
6.08e-07,-0.00046182000000000005
6.12e-07,0.006065376000000001
6.16e-07,0.010918932000000001
6.2e-07,0.012592572000000002
6.240000000000001e-07,0.011086296
6.280000000000001e-07,0.0067348320000000005
6.32e-07,0.000709728
6.36e-07,-0.0056501039999999995
6.4e-07,-0.010671024
6.44e-07,-0.01301412
6.480000000000001e-07,-0.011842572
6.520000000000001e-07,-0.007491108
6.56e-07,-0.000963912
6.6e-07,0.005563284000000001
6.64e-07,0.010584204
6.68e-07,0.012592572000000002
6.720000000000001e-07,0.01125366
6.760000000000001e-07,0.007069560000000001
6.800000000000001e-07,0.001044456
6.84e-07,-0.005315376
6.88e-07,-0.01050366
6.92e-07,-0.01301412
6.960000000000001e-07,-0.012009936
7.000000000000001e-07,-0.007825836
7.040000000000001e-07,-0.0012986400000000002
7.08e-07,0.0052285560000000005
7.12e-07,0.01041684
7.16e-07,0.012592572000000002
7.200000000000001e-07,0.011421024
7.240000000000001e-07,0.0072369240000000005
7.280000000000001e-07,0.0012118200000000002
7.32e-07,-0.004980648
7.36e-07,-0.010336296
7.4e-07,-0.012846756
7.440000000000001e-07,-0.012009936
7.480000000000001e-07,-0.007825836
7.520000000000001e-07,-0.001466004
7.56e-07,0.005061192000000001
7.6e-07,0.010249476
7.64e-07,0.012425208
7.680000000000001e-07,0.01125366
7.720000000000001e-07,0.0072369240000000005
7.760000000000001e-07,0.0012118200000000002
7.8e-07,-0.004980648
7.84e-07,-0.010336296
7.88e-07,-0.012846756
7.92e-07,-0.012009936
7.960000000000001e-07,-0.007825836
8.000000000000001e-07,-0.0012986400000000002
8.04e-07,0.0052285560000000005
8.08e-07,0.01041684
8.12e-07,0.012425208
8.16e-07,0.01125366
8.200000000000001e-07,0.007069560000000001
8.240000000000001e-07,0.001044456
8.280000000000001e-07,-0.005315376
8.32e-07,-0.01050366
8.36e-07,-0.012846756
8.4e-07,-0.011842572
8.440000000000001e-07,-0.007491108
8.480000000000001e-07,-0.000963912
8.520000000000001e-07,0.005563284000000001
8.56e-07,0.01041684
8.6e-07,0.012425208
8.64e-07,0.010918932000000001
8.680000000000001e-07,0.0067348320000000005
8.720000000000001e-07,0.000542364
8.760000000000001e-07,-0.0056501039999999995
8.8e-07,-0.010671024
8.84e-07,-0.012846756
8.88e-07,-0.011507844
8.920000000000001e-07,-0.006989016
8.960000000000001e-07,-0.00046182000000000005
9.000000000000001e-07,0.006065376000000001
9.04e-07,0.010751568000000001
9.08e-07,0.012257844
9.12e-07,0.010584204
9.160000000000001e-07,0.006065376000000001
9.200000000000001e-07,4.0271999999999997e-05
9.240000000000001e-07,-0.00631956
9.28e-07,-0.011005752
9.32e-07,-0.012846756
9.36e-07,-0.011173116
9.400000000000001e-07,-0.00631956
9.440000000000001e-07,0.000375
9.480000000000001e-07,0.0067348320000000005
9.520000000000001e-07,0.011086296
9.56e-07,0.012257844
9.600000000000001e-07,0.010082112
9.64e-07,0.00539592
9.68e-07,-0.0007965480000000001
9.72e-07,-0.0071563799999999995
9.76e-07,-0.011507844
9.800000000000001e-07,-0.012679392
9.84e-07,-0.01050366
9.880000000000001e-07,-0.005315376
9.92e-07,0.0012118200000000002
9.96e-07,0.007571652000000001
1.0000000000000002e-06,0.011421024
1.004e-06,0.01209048
1.0080000000000001e-06,0.009412656
1.012e-06,0.0042243720000000005
1.016e-06,-0.0019680960000000003
1.02e-06,-0.0079932
1.024e-06,-0.011842572
1.0280000000000002e-06,-0.012512028
1.032e-06,-0.00966684
1.0360000000000001e-06,-0.003976464
1.04e-06,0.002550732
1.044e-06,0.008408472
1.048e-06,0.011755752000000001
1.052e-06,0.011755752000000001
1.0560000000000001e-06,0.008575836
1.06e-06,0.003052824
1.064e-06,-0.003307008
1.068e-06,-0.008997384
1.072e-06,-0.012344664
1.0760000000000002e-06,-0.0121773
1.08e-06,-0.008662656
1.0840000000000001e-06,-0.002637552
1.088e-06,0.003889644
1.092e-06,0.009412656
1.096e-06,0.011923116000000001
1.1e-06,0.01125366
1.1040000000000001e-06,0.007404288
1.108e-06,0.001546548
1.1120000000000001e-06,-0.004813284
1.116e-06,-0.010001568
1.12e-06,-0.012512028
1.1240000000000002e-06,-0.011507844
1.128e-06,-0.007323744
1.1320000000000001e-06,-0.0007965480000000001
1.136e-06,0.00539592
1.14e-06,0.010249476
1.144e-06,0.011923116000000001
1.148e-06,0.01041684
1.1520000000000002e-06,0.005898012
1.156e-06,-0.00012709199999999998
1.1600000000000001e-06,-0.00631956
1.164e-06,-0.011005752
1.168e-06,-0.012512028
1.1720000000000002e-06,-0.010671024
1.176e-06,-0.0056501039999999995
1.1800000000000001e-06,0.000877092
1.184e-06,0.007069560000000001
1.188e-06,0.011086296
1.192e-06,0.011755752000000001
1.196e-06,0.009245292
1.2000000000000002e-06,0.004057008
1.204e-06,-0.00213546
1.2080000000000001e-06,-0.0079932
1.212e-06,-0.011675208
1.216e-06,-0.0121773
1.2200000000000002e-06,-0.009164748
1.224e-06,-0.0034743720000000003
1.2280000000000001e-06,0.00288546
1.232e-06,0.008575836
1.2360000000000001e-06,0.011588388000000002
1.24e-06,0.01125366
1.244e-06,0.0077390160000000005
1.2480000000000002e-06,0.00204864
1.252e-06,-0.004143828
1.2560000000000001e-06,-0.009499476
1.26e-06,-0.0121773
1.264e-06,-0.011507844
1.2680000000000002e-06,-0.007491108
1.272e-06,-0.001131276
1.2760000000000001e-06,0.005061192000000001
1.28e-06,0.009914748000000001
1.2840000000000001e-06,0.011755752000000001
1.288e-06,0.010249476
1.292e-06,0.005898012
1.2960000000000002e-06,-0.00012709199999999998
1.3e-06,-0.00631956
1.3040000000000001e-06,-0.010838388000000001
1.308e-06,-0.012344664
1.312e-06,-0.010168932
1.316e-06,-0.005315376
1.32e-06,0.001044456
1.3240000000000002e-06,0.0072369240000000005
1.328e-06,0.010918932000000001
1.3320000000000001e-06,0.011421024
1.336e-06,0.008743200000000001
1.34e-06,0.003554916
1.3440000000000002e-06,-0.002637552
1.348e-06,-0.008327928
1.3520000000000001e-06,-0.011675208
1.356e-06,-0.011842572
1.3600000000000001e-06,-0.008495292
1.364e-06,-0.0024701880000000003
1.368e-06,0.00372228
1.3720000000000002e-06,0.009077928
1.376e-06,0.011588388000000002
1.3800000000000001e-06,0.010584204
1.384e-06,0.0067348320000000005
1.388e-06,0.000877092
1.3920000000000002e-06,-0.0051480119999999996
1.396e-06,-0.010001568
1.4000000000000001e-06,-0.0121773
1.404e-06,-0.010671024
1.4080000000000001e-06,-0.0061521959999999995
1.412e-06,0.000375
1.416e-06,0.006400104
1.4200000000000002e-06,0.01041684
1.424e-06,0.011421024
1.4280000000000001e-06,0.009077928
1.432e-06,0.004057008
1.436e-06,-0.0018007320000000002
1.4400000000000002e-06,-0.0076584719999999995
1.444e-06,-0.01134048
1.4480000000000002e-06,-0.011842572
1.452e-06,-0.008662656
1.4560000000000001e-06,-0.0029722800000000003
1.46e-06,0.003220188
1.464e-06,0.008575836
1.4680000000000002e-06,0.01125366
1.472e-06,0.010584204
1.4760000000000001e-06,0.006902196
1.48e-06,0.001044456
1.4840000000000001e-06,-0.004980648
1.4880000000000002e-06,-0.009834204
1.492e-06,-0.012009936
1.4960000000000002e-06,-0.010671024
1.5e-06,-0.0061521959999999995
1.5040000000000001e-06,0.000207636
1.508e-06,0.0062327400000000005
1.512e-06,0.010249476
1.5160000000000002e-06,0.01125366
1.52e-06,0.008910564000000001
1.5240000000000001e-06,0.004057008
1.528e-06,-0.0019680960000000003
1.5320000000000001e-06,-0.007825836
1.5360000000000002e-06,-0.01134048
1.54e-06,-0.011675208
1.5440000000000002e-06,-0.008495292
1.548e-06,-0.002804916
1.5520000000000001e-06,0.003387552
1.556e-06,0.008743200000000001
1.56e-06,0.011086296
1.5640000000000002e-06,0.010249476
1.568e-06,0.006567468000000001
1.5720000000000002e-06,0.000709728
1.576e-06,-0.005315376
1.5800000000000001e-06,-0.010001568
1.584e-06,-0.011842572
1.588e-06,-0.010168932
1.5920000000000002e-06,-0.00548274
1.596e-06,0.000709728
1.6000000000000001e-06,0.0067348320000000005
1.604e-06,0.01041684
1.608e-06,0.011086296
1.6120000000000002e-06,0.008408472
1.616e-06,0.003220188
1.6200000000000002e-06,-0.002804916
1.624e-06,-0.008327928
1.6280000000000001e-06,-0.01134048
1.632e-06,-0.011173116
1.636e-06,-0.0076584719999999995
1.6400000000000002e-06,-0.0018007320000000002
1.644e-06,0.004391736
1.6480000000000001e-06,0.009245292
1.652e-06,0.011086296
1.6560000000000001e-06,0.009747384000000001
1.6600000000000002e-06,0.00539592
1.664e-06,-0.000294456
1.6680000000000002e-06,-0.00631956
1.672e-06,-0.01050366
1.6760000000000001e-06,-0.011675208
1.68e-06,-0.009332112
1.684e-06,-0.004143828
1.6880000000000002e-06,0.00204864
1.692e-06,0.0077390160000000005
1.6960000000000002e-06,0.010751568000000001
1.7e-06,0.010584204
1.7040000000000001e-06,0.0072369240000000005
1.7080000000000002e-06,0.0017139120000000002
1.712e-06,-0.004143828
1.7160000000000002e-06,-0.009164748
1.72e-06,-0.011507844
1.7240000000000001e-06,-0.01050366
1.728e-06,-0.0061521959999999995
1.732e-06,4.0271999999999997e-05
1.7360000000000002e-06,0.005898012
1.74e-06,0.009914748000000001
1.7440000000000002e-06,0.010918932000000001
1.748e-06,0.008575836
1.7520000000000001e-06,0.00372228
1.7560000000000002e-06,-0.00213546
1.76e-06,-0.007825836
1.7640000000000002e-06,-0.011005752
1.768e-06,-0.011173116
1.7720000000000001e-06,-0.007825836
1.776e-06,-0.0019680960000000003
1.7800000000000001e-06,0.004057008
1.7840000000000002e-06,0.008910564000000001
1.788e-06,0.010918932000000001
1.7920000000000002e-06,0.00958002
1.796e-06,0.00539592
1.8000000000000001e-06,-0.000294456
1.804e-06,-0.00631956
1.808e-06,-0.010336296
1.8120000000000002e-06,-0.01134048
1.816e-06,-0.008997384
1.8200000000000002e-06,-0.0038091000000000006
1.824e-06,0.002216004
1.8280000000000001e-06,0.0077390160000000005
1.8320000000000002e-06,0.010584204
1.836e-06,0.010082112
1.8400000000000002e-06,0.0067348320000000005
1.844e-06,0.0012118200000000002
1.8480000000000001e-06,-0.0046459199999999996
1.852e-06,-0.009332112
1.856e-06,-0.01134048
1.8600000000000002e-06,-0.009834204
1.864e-06,-0.00548274
1.8680000000000002e-06,0.000542364
1.872e-06,0.006400104
1.8760000000000001e-06,0.009914748000000001
1.8800000000000002e-06,0.01041684
1.884e-06,0.00790638
1.8880000000000002e-06,0.002718096
1.892e-06,-0.003139644
1.8960000000000001e-06,-0.008327928
1.9e-06,-0.011005752
1.9040000000000001e-06,-0.01050366
1.908e-06,-0.0066542879999999995
1.912e-06,-0.000629184
1.916e-06,0.005061192000000001
1.9200000000000003e-06,0.009245292
1.924e-06,0.010584204
1.928e-06,0.008575836
1.9320000000000003e-06,0.003889644
1.936e-06,-0.0018007320000000002
1.94e-06,-0.007323744
1.944e-06,-0.010671024
1.9480000000000002e-06,-0.010838388000000001
1.952e-06,-0.0076584719999999995
1.956e-06,-0.0019680960000000003
1.9600000000000003e-06,0.003889644
1.964e-06,0.008575836
1.968e-06,0.01041684
1.972e-06,0.009077928
1.9760000000000002e-06,0.004893828
1.98e-06,-0.000629184
1.984e-06,-0.006486924
1.9880000000000003e-06,-0.010168932
1.992e-06,-0.010838388000000001
1.996e-06,-0.008327928
2.0000000000000003e-06,-0.0029722800000000003
2.004e-06,0.00288546
2.008e-06,0.00790638
2.012e-06,0.010249476
2.0160000000000003e-06,0.009412656
2.02e-06,0.0057306480000000005
2.024e-06,0.000207636
2.0280000000000003e-06,-0.00548274
2.032e-06,-0.00966684
2.036e-06,-0.011005752
2.04e-06,-0.00883002
2.0440000000000003e-06,-0.003976464
2.048e-06,0.0018812759999999999
2.052e-06,0.0072369240000000005
2.0560000000000003e-06,0.009914748000000001
2.06e-06,0.00958002
2.064e-06,0.0062327400000000005
2.068e-06,0.000877092
2.0720000000000002e-06,-0.004813284
2.076e-06,-0.009164748
2.08e-06,-0.010838388000000001
2.0840000000000003e-06,-0.009164748
2.088e-06,-0.0046459199999999996
2.092e-06,0.0012118200000000002
2.096e-06,0.0067348320000000005
2.1000000000000002e-06,0.009747384000000001
2.104e-06,0.009747384000000001
2.108e-06,0.0067348320000000005
2.1120000000000003e-06,0.001546548
2.116e-06,-0.004143828
2.12e-06,-0.00883002
2.1240000000000003e-06,-0.010838388000000001
2.128e-06,-0.009332112
2.132e-06,-0.0051480119999999996
2.136e-06,0.000709728
2.1400000000000003e-06,0.0062327400000000005
2.144e-06,0.00958002
2.148e-06,0.009747384000000001
2.1520000000000003e-06,0.007069560000000001
2.156e-06,0.0018812759999999999
2.16e-06,-0.003641736
2.164e-06,-0.008495292
2.1680000000000002e-06,-0.010671024
2.172e-06,-0.009499476
2.176e-06,-0.00548274
2.1800000000000003e-06,0.000375
2.184e-06,0.0057306480000000005
2.188e-06,0.009412656
2.192e-06,0.009914748000000001
2.1960000000000002e-06,0.0072369240000000005
2.2e-06,0.002216004
2.204e-06,-0.003307008
2.2080000000000003e-06,-0.008160564
2.212e-06,-0.01050366
2.216e-06,-0.009499476
2.2200000000000003e-06,-0.0056501039999999995
2.2240000000000002e-06,0.000207636
2.228e-06,0.005563284000000001
2.232e-06,0.009245292
2.2360000000000003e-06,0.009747384000000001
2.24e-06,0.0072369240000000005
2.244e-06,0.002383368
2.2480000000000003e-06,-0.003139644
2.252e-06,-0.0079932
2.256e-06,-0.010336296
2.26e-06,-0.009499476
2.2640000000000003e-06,-0.0056501039999999995
2.268e-06,4.0271999999999997e-05
2.272e-06,0.00539592
2.2760000000000003e-06,0.009077928
2.28e-06,0.00958002
2.284e-06,0.0072369240000000005
2.288e-06,0.002383368
2.2920000000000002e-06,-0.003139644
2.296e-06,-0.0079932
2.3e-06,-0.010336296
2.3040000000000003e-06,-0.009499476
2.308e-06,-0.00548274
2.312e-06,0.000207636
2.316e-06,0.005563284000000001
2.3200000000000002e-06,0.009077928
2.324e-06,0.00958002
2.328e-06,0.007069560000000001
2.3320000000000003e-06,0.002216004
2.336e-06,-0.003307008
2.34e-06,-0.0079932
2.3440000000000003e-06,-0.010168932
2.3480000000000002e-06,-0.009332112
2.352e-06,-0.005315376
2.356e-06,0.000375
2.3600000000000003e-06,0.0057306480000000005
2.364e-06,0.009077928
2.368e-06,0.009412656
2.3720000000000003e-06,0.006902196
2.376e-06,0.0018812759999999999
2.38e-06,-0.0034743720000000003
2.384e-06,-0.008160564
2.3880000000000003e-06,-0.010168932
2.392e-06,-0.008997384
2.396e-06,-0.004980648
2.4000000000000003e-06,0.000542364
2.404e-06,0.005898012
2.408e-06,0.009077928
2.412e-06,0.009245292
2.4160000000000002e-06,0.006400104
2.42e-06,0.0013791839999999999
2.424e-06,-0.003976464
2.4280000000000003e-06,-0.008327928
2.432e-06,-0.010168932
2.436e-06,-0.008662656
2.4400000000000004e-06,-0.004311192
2.4440000000000002e-06,0.001044456
2.448e-06,0.0062327400000000005
2.452e-06,0.009245292
2.4560000000000003e-06,0.009077928
2.46e-06,0.005898012
2.464e-06,0.000877092
2.4680000000000003e-06,-0.004478556
2.4720000000000002e-06,-0.008662656
2.476e-06,-0.010001568
2.48e-06,-0.008160564
2.4840000000000003e-06,-0.003641736
2.488e-06,0.0017139120000000002
2.492e-06,0.0067348320000000005
2.4960000000000003e-06,0.009245292
2.5e-06,0.008743200000000001
2.504e-06,0.0052285560000000005
2.508e-06,0.000207636
2.5120000000000003e-06,-0.0051480119999999996
2.516e-06,-0.00883002
2.52e-06,-0.009834204
2.5240000000000003e-06,-0.0076584719999999995
2.528e-06,-0.0029722800000000003
2.532e-06,0.002550732
2.5360000000000004e-06,0.0072369240000000005
2.5400000000000002e-06,0.009245292
2.544e-06,0.008241108
2.548e-06,0.004559100000000001
2.5520000000000003e-06,-0.000629184
2.556e-06,-0.005817468
2.56e-06,-0.009164748
2.5640000000000004e-06,-0.00966684
2.5680000000000002e-06,-0.006989016
2.572e-06,-0.0019680960000000003
2.576e-06,0.003387552
2.5800000000000003e-06,0.0077390160000000005
2.584e-06,0.009245292
2.588e-06,0.0077390160000000005
2.5920000000000003e-06,0.003554916
2.5960000000000002e-06,-0.001633368
2.6e-06,-0.006486924
2.604e-06,-0.009332112
2.6080000000000003e-06,-0.009332112
2.612e-06,-0.0061521959999999995
2.616e-06,-0.0007965480000000001
2.6200000000000003e-06,0.004391736
2.624e-06,0.008073744
2.628e-06,0.009077928
2.632e-06,0.007069560000000001
2.6360000000000003e-06,0.002550732
2.64e-06,-0.002637552
2.644e-06,-0.007323744
2.6480000000000003e-06,-0.009499476
2.652e-06,-0.00883002
2.656e-06,-0.004980648
2.6600000000000004e-06,0.000375
2.6640000000000002e-06,0.00539592
2.668e-06,0.008575836
2.672e-06,0.008743200000000001
2.6760000000000003e-06,0.006065376000000001
2.68e-06,0.0012118200000000002
2.684e-06,-0.0038091000000000006
2.6880000000000004e-06,-0.0079932
2.6920000000000002e-06,-0.00966684
2.696e-06,-0.0079932
2.7e-06,-0.0038091000000000006
2.7040000000000003e-06,0.001546548
2.708e-06,0.006400104
2.712e-06,0.008910564000000001
2.7160000000000003e-06,0.008241108
2.7200000000000002e-06,0.004893828
2.724e-06,4.0271999999999997e-05
2.728e-06,-0.0051480119999999996
2.7320000000000003e-06,-0.008662656
2.736e-06,-0.009332112
2.74e-06,-0.0071563799999999995
2.7440000000000003e-06,-0.002302824
2.748e-06,0.00288546
2.752e-06,0.0072369240000000005
2.7560000000000004e-06,0.008910564000000001
2.7600000000000003e-06,0.007571652000000001
2.764e-06,0.003554916
2.768e-06,-0.001466004
2.7720000000000003e-06,-0.00631956
2.776e-06,-0.009164748
2.78e-06,-0.008997384
2.7840000000000004e-06,-0.005817468
2.7880000000000002e-06,-0.000629184
2.792e-06,0.004391736
2.796e-06,0.00790638
2.8000000000000003e-06,0.008743200000000001
2.804e-06,0.006567468000000001
2.808e-06,0.00204864
2.8120000000000004e-06,-0.0029722800000000003
2.8160000000000002e-06,-0.007323744
2.82e-06,-0.009332112
2.824e-06,-0.008160564
2.8280000000000003e-06,-0.004311192
2.832e-06,0.000709728
2.836e-06,0.0057306480000000005
2.8400000000000003e-06,0.008408472
2.8440000000000002e-06,0.008241108
2.848e-06,0.0052285560000000005
2.852e-06,0.000375
2.8560000000000003e-06,-0.0046459199999999996
2.86e-06,-0.008327928
2.864e-06,-0.009164748
2.8680000000000003e-06,-0.0071563799999999995
2.872e-06,-0.0024701880000000003
2.876e-06,0.002550732
2.8800000000000004e-06,0.006902196
2.8840000000000003e-06,0.008743200000000001
2.888e-06,0.007404288
2.892e-06,0.003554916
2.8960000000000003e-06,-0.0012986400000000002
2.9e-06,-0.0061521959999999995
2.904e-06,-0.00883002
2.9080000000000004e-06,-0.008662656
2.9120000000000002e-06,-0.0056501039999999995
2.916e-06,-0.000629184
2.92e-06,0.004391736
2.9240000000000003e-06,0.00790638
2.928e-06,0.008575836
2.932e-06,0.0062327400000000005
2.9360000000000003e-06,0.0017139120000000002
2.9400000000000002e-06,-0.003307008
2.944e-06,-0.007491108
2.948e-06,-0.009164748
2.9520000000000003e-06,-0.007825836
2.956e-06,-0.0038091000000000006
2.96e-06,0.0012118200000000002
2.9640000000000003e-06,0.005898012
2.9680000000000002e-06,0.008408472
2.972e-06,0.00790638
2.9760000000000004e-06,0.004559100000000001
2.9800000000000003e-06,-0.000294456
2.984e-06,-0.0051480119999999996
2.988e-06,-0.008327928
2.9920000000000003e-06,-0.00883002
2.996e-06,-0.00631956
3e-06,-0.001633368
3.0040000000000004e-06,0.003387552
3.0080000000000003e-06,0.0072369240000000005
3.012e-06,0.008408472
3.016e-06,0.0067348320000000005
3.0200000000000003e-06,0.002550732
3.024e-06,-0.002302824
3.028e-06,-0.006821652
3.0320000000000004e-06,-0.00883002
3.0360000000000002e-06,-0.0079932
3.04e-06,-0.004478556
3.044e-06,0.000542364
3.0480000000000003e-06,0.0052285560000000005
3.052e-06,0.008073744
3.056e-06,0.00790638
3.0600000000000003e-06,0.004893828
3.0640000000000002e-06,0.000375
3.068e-06,-0.004478556
3.0720000000000004e-06,-0.0079932
3.0760000000000003e-06,-0.00883002
3.08e-06,-0.0066542879999999995
3.084e-06,-0.00213546
3.0880000000000003e-06,0.002718096
3.092e-06,0.006902196
3.096e-06,0.008408472
3.1000000000000004e-06,0.006902196
3.1040000000000003e-06,0.00288546
3.108e-06,-0.0019680960000000003
3.112e-06,-0.00631956
3.1160000000000003e-06,-0.008662656
3.12e-06,-0.008160564
3.124e-06,-0.0046459199999999996
3.1280000000000004e-06,0.000207636
3.1320000000000003e-06,0.004893828
3.136e-06,0.00790638
3.14e-06,0.00790638
3.1440000000000003e-06,0.005061192000000001
3.148e-06,0.000375
3.152e-06,-0.004311192
3.1560000000000004e-06,-0.007825836
3.1600000000000002e-06,-0.008662656
3.164e-06,-0.0066542879999999995
3.168e-06,-0.00213546
3.1720000000000003e-06,0.002718096
3.176e-06,0.0067348320000000005
3.18e-06,0.008241108
3.1840000000000003e-06,0.0067348320000000005
3.1880000000000002e-06,0.002718096
3.192e-06,-0.0019680960000000003
3.1960000000000004e-06,-0.00631956
3.2000000000000003e-06,-0.008495292
3.204e-06,-0.007825836
3.208e-06,-0.004478556
3.2120000000000003e-06,0.000375
3.216e-06,0.005061192000000001
3.22e-06,0.0077390160000000005
3.2240000000000004e-06,0.007571652000000001
3.2280000000000003e-06,0.0047264640000000005
3.232e-06,0.000375
3.236e-06,-0.004478556
3.2400000000000003e-06,-0.007825836
3.244e-06,-0.008495292
3.248e-06,-0.0061521959999999995
3.2520000000000004e-06,-0.0018007320000000002
3.2560000000000003e-06,0.003052824
3.26e-06,0.006902196
3.264e-06,0.008073744
3.2680000000000003e-06,0.0062327400000000005
3.272e-06,0.002216004
3.276e-06,-0.0024701880000000003
3.2800000000000004e-06,-0.006486924
3.2840000000000002e-06,-0.008327928
3.288e-06,-0.007491108
3.2920000000000004e-06,-0.0038091000000000006
3.2960000000000003e-06,0.000877092
3.3e-06,0.00539592
3.304e-06,0.00790638
3.3080000000000003e-06,0.0072369240000000005
3.3120000000000002e-06,0.003889644
3.316e-06,-0.00046182000000000005
3.3200000000000004e-06,-0.004980648
3.3240000000000003e-06,-0.007825836
3.328e-06,-0.008160564
3.332e-06,-0.00548274
3.3360000000000003e-06,-0.0007965480000000001
3.34e-06,0.00372228
3.344e-06,0.0072369240000000005
3.3480000000000004e-06,0.0077390160000000005
3.3520000000000003e-06,0.00539592
3.356e-06,0.0012118200000000002
3.36e-06,-0.003307008
3.3640000000000003e-06,-0.006989016
3.368e-06,-0.008327928
3.372e-06,-0.006821652
3.3760000000000004e-06,-0.002637552
3.3800000000000002e-06,0.00204864
3.384e-06,0.006065376000000001
3.388e-06,0.00790638
3.3920000000000003e-06,0.006567468000000001
3.396e-06,0.00288546
3.4e-06,-0.001633368
3.4040000000000004e-06,-0.005817468
3.4080000000000002e-06,-0.008160564
3.412e-06,-0.0076584719999999995
3.4160000000000004e-06,-0.004311192
3.4200000000000003e-06,0.000375
3.424e-06,0.004893828
3.428e-06,0.007571652000000001
3.4320000000000003e-06,0.0072369240000000005
3.4360000000000002e-06,0.0042243720000000005
3.44e-06,4.0271999999999997e-05
3.4440000000000004e-06,-0.004478556
3.4480000000000003e-06,-0.007491108
3.452e-06,-0.0079932
3.456e-06,-0.0056501039999999995
3.4600000000000003e-06,-0.001131276
3.464e-06,0.003387552
3.468e-06,0.006902196
3.4720000000000004e-06,0.007571652000000001
3.4760000000000003e-06,0.00539592
3.48e-06,0.0013791839999999999
3.484e-06,-0.0029722800000000003
3.4880000000000003e-06,-0.0066542879999999995
3.492e-06,-0.008160564
3.496e-06,-0.0066542879999999995
3.5000000000000004e-06,-0.002637552
3.5040000000000002e-06,0.0018812759999999999
3.508e-06,0.006065376000000001
3.5120000000000004e-06,0.0077390160000000005
3.5160000000000003e-06,0.006400104
3.52e-06,0.002718096
3.524e-06,-0.001633368
3.5280000000000004e-06,-0.005817468
3.5320000000000002e-06,-0.0079932
3.536e-06,-0.007323744
3.5400000000000004e-06,-0.003976464
3.5440000000000003e-06,0.000542364
3.548e-06,0.005061192000000001
3.552e-06,0.007404288
3.5560000000000003e-06,0.006902196
3.5600000000000002e-06,0.003889644
3.564e-06,-0.00046182000000000005
3.5680000000000004e-06,-0.004813284
3.5720000000000003e-06,-0.007491108
3.576e-06,-0.0076584719999999995
3.58e-06,-0.004980648
3.5840000000000003e-06,-0.00046182000000000005
3.588e-06,0.003889644
3.592e-06,0.007069560000000001
3.5960000000000004e-06,0.0072369240000000005
3.6000000000000003e-06,0.0047264640000000005
3.604e-06,0.000542364
3.608e-06,-0.003641736
3.6120000000000003e-06,-0.006989016
3.616e-06,-0.007825836
3.62e-06,-0.005817468
3.6240000000000004e-06,-0.001633368
3.6280000000000002e-06,0.00288546
3.632e-06,0.006400104
3.6360000000000004e-06,0.007404288
3.6400000000000003e-06,0.005563284000000001
3.644e-06,0.0017139120000000002
3.648e-06,-0.002637552
3.6520000000000004e-06,-0.00631956
3.6560000000000002e-06,-0.007825836
3.66e-06,-0.006486924
3.6640000000000004e-06,-0.002804916
3.6680000000000003e-06,0.0017139120000000002
3.672e-06,0.005898012
3.676e-06,0.007404288
3.6800000000000003e-06,0.006065376000000001
3.6840000000000002e-06,0.002550732
3.688e-06,-0.001633368
3.6920000000000004e-06,-0.0056501039999999995
3.6960000000000003e-06,-0.0076584719999999995
3.7e-06,-0.006989016
3.704e-06,-0.003641736
3.7080000000000003e-06,0.000709728
3.712e-06,0.005061192000000001
3.716e-06,0.0072369240000000005
3.7200000000000004e-06,0.006567468000000001
3.7240000000000003e-06,0.003387552
3.728e-06,-0.0007965480000000001
3.7320000000000004e-06,-0.004980648
3.7360000000000003e-06,-0.007491108
3.74e-06,-0.007323744
3.744e-06,-0.004311192
3.7480000000000004e-06,0.000207636
3.7520000000000002e-06,0.004391736
3.756e-06,0.007069560000000001
3.7600000000000004e-06,0.006902196
3.7640000000000003e-06,0.003889644
3.768e-06,-0.00012709199999999998
3.772e-06,-0.004311192
3.7760000000000004e-06,-0.0071563799999999995
3.7800000000000002e-06,-0.007491108
3.784e-06,-0.004980648
3.7880000000000004e-06,-0.000629184
3.7920000000000003e-06,0.00372228
3.796e-06,0.0067348320000000005
3.8e-06,0.006902196
3.8040000000000003e-06,0.004559100000000001
3.8080000000000002e-06,0.000375
3.812e-06,-0.003641736
3.816e-06,-0.006821652
3.82e-06,-0.007491108
3.824e-06,-0.00548274
3.8280000000000004e-06,-0.0012986400000000002
3.832e-06,0.003220188
3.836e-06,0.006567468000000001
3.8400000000000005e-06,0.007069560000000001
3.844e-06,0.004893828
3.848e-06,0.000877092
3.8520000000000006e-06,-0.003139644
3.856e-06,-0.006486924
3.86e-06,-0.007491108
3.864000000000001e-06,-0.005817468
3.868e-06,-0.0018007320000000002
3.872e-06,0.002718096
3.876e-06,0.0062327400000000005
3.88e-06,0.007069560000000001
3.884e-06,0.0052285560000000005
3.888e-06,0.0013791839999999999
3.892e-06,-0.002804916
3.8960000000000005e-06,-0.0061521959999999995
3.9e-06,-0.007491108
3.904e-06,-0.005984832
3.9080000000000005e-06,-0.002302824
3.912e-06,0.002216004
3.916e-06,0.005898012
3.920000000000001e-06,0.007069560000000001
3.924e-06,0.00539592
3.928e-06,0.0017139120000000002
3.932000000000001e-06,-0.002302824
3.936e-06,-0.005984832
3.94e-06,-0.007491108
3.944e-06,-0.0061521959999999995
3.948e-06,-0.0024701880000000003
3.9520000000000004e-06,0.0018812759999999999
3.956e-06,0.0057306480000000005
3.96e-06,0.007069560000000001
3.9640000000000005e-06,0.005563284000000001
3.968e-06,0.00204864
3.972e-06,-0.0019680960000000003
3.9760000000000006e-06,-0.0056501039999999995
3.98e-06,-0.007323744
3.984e-06,-0.00631956
3.988000000000001e-06,-0.002804916
3.992e-06,0.001546548
3.996e-06,0.005563284000000001
4.000000000000001e-06,0.007069560000000001
4.004e-06,0.0057306480000000005
4.008e-06,0.002216004
4.012e-06,-0.0018007320000000002
4.016e-06,-0.00548274
4.0200000000000005e-06,-0.007323744
4.024e-06,-0.00631956
4.028e-06,-0.0029722800000000003
4.0320000000000005e-06,0.0013791839999999999
4.036e-06,0.00539592
4.04e-06,0.007069560000000001
4.044000000000001e-06,0.0057306480000000005
4.048e-06,0.002383368
4.052e-06,-0.001633368
4.056000000000001e-06,-0.00548274
4.06e-06,-0.0071563799999999995
4.064e-06,-0.00631956
4.068e-06,-0.0029722800000000003
4.072e-06,0.0013791839999999999
4.0760000000000004e-06,0.0052285560000000005
4.08e-06,0.007069560000000001
4.084e-06,0.0057306480000000005
4.0880000000000005e-06,0.002383368
4.092e-06,-0.001633368
4.096e-06,-0.005315376
4.1000000000000006e-06,-0.0071563799999999995
4.104e-06,-0.00631956
4.108e-06,-0.0029722800000000003
4.112000000000001e-06,0.0013791839999999999
4.116e-06,0.0052285560000000005
4.12e-06,0.006902196
4.124000000000001e-06,0.0057306480000000005
4.128e-06,0.002216004
4.132e-06,-0.001633368
4.136e-06,-0.00548274
4.14e-06,-0.0071563799999999995
4.1440000000000005e-06,-0.00631956
4.148e-06,-0.002804916
4.152e-06,0.0013791839999999999
4.1560000000000005e-06,0.0052285560000000005
4.16e-06,0.006902196
4.164e-06,0.005563284000000001
4.168000000000001e-06,0.00204864
4.172e-06,-0.0018007320000000002
4.176e-06,-0.00548274
4.180000000000001e-06,-0.0071563799999999995
4.184e-06,-0.0061521959999999995
4.188e-06,-0.002637552
4.192e-06,0.001546548
4.196e-06,0.00539592
4.2000000000000004e-06,0.0067348320000000005
4.204e-06,0.00539592
4.208e-06,0.0018812759999999999
4.2120000000000005e-06,-0.0019680960000000003
4.216e-06,-0.0056501039999999995
4.22e-06,-0.0071563799999999995
4.2240000000000006e-06,-0.005984832
4.228e-06,-0.0024701880000000003
4.232e-06,0.0018812759999999999
4.236000000000001e-06,0.005563284000000001
4.24e-06,0.0067348320000000005
4.244e-06,0.0052285560000000005
4.248000000000001e-06,0.001546548
4.252e-06,-0.002302824
4.256e-06,-0.0056501039999999995
4.26e-06,-0.006989016
4.264e-06,-0.0056501039999999995
4.2680000000000005e-06,-0.0019680960000000003
4.272e-06,0.002216004
4.276e-06,0.0057306480000000005
4.2800000000000005e-06,0.0067348320000000005
4.284e-06,0.004893828
4.288e-06,0.0012118200000000002
4.292000000000001e-06,-0.002637552
4.296e-06,-0.005817468
4.3e-06,-0.006989016
4.304000000000001e-06,-0.00548274
4.308e-06,-0.001633368
4.312e-06,0.002718096
4.316000000000001e-06,0.005898012
4.32e-06,0.006567468000000001
4.3240000000000004e-06,0.004559100000000001
4.328e-06,0.000709728
4.332e-06,-0.003139644
4.3360000000000005e-06,-0.0061521959999999995
4.34e-06,-0.006821652
4.344e-06,-0.004980648
4.3480000000000006e-06,-0.000963912
4.352e-06,0.003220188
4.356e-06,0.006065376000000001
4.360000000000001e-06,0.006400104
4.364e-06,0.004057008
4.368e-06,0.000375
4.372000000000001e-06,-0.0034743720000000003
4.376e-06,-0.00631956
4.38e-06,-0.006821652
4.384e-06,-0.004478556
4.388e-06,-0.000294456
4.3920000000000005e-06,0.00372228
4.396e-06,0.006400104
4.4e-06,0.0062327400000000005
4.4040000000000005e-06,0.003554916
4.408e-06,-0.00012709199999999998
4.412e-06,-0.003976464
4.416000000000001e-06,-0.006486924
4.42e-06,-0.006486924
4.424e-06,-0.0038091000000000006
4.428000000000001e-06,0.000375
4.432e-06,0.0042243720000000005
4.436e-06,0.006400104
4.440000000000001e-06,0.0057306480000000005
4.444e-06,0.00288546
4.4480000000000004e-06,-0.0007965480000000001
4.452e-06,-0.0046459199999999996
4.456e-06,-0.0066542879999999995
4.4600000000000005e-06,-0.0061521959999999995
4.464e-06,-0.003139644
4.468e-06,0.000877092
4.4720000000000006e-06,0.004893828
4.476e-06,0.006567468000000001
4.48e-06,0.00539592
4.484000000000001e-06,0.002216004
4.488e-06,-0.001633368
4.492e-06,-0.0051480119999999996
4.496000000000001e-06,-0.006821652
4.5e-06,-0.005817468
4.504e-06,-0.002302824
4.508e-06,0.0018812759999999999
4.512e-06,0.00539592
4.5160000000000005e-06,0.006567468000000001
4.52e-06,0.0047264640000000005
4.524e-06,0.0013791839999999999
4.5280000000000005e-06,-0.0024701880000000003
4.532e-06,-0.0056501039999999995
4.536e-06,-0.0066542879999999995
4.540000000000001e-06,-0.0051480119999999996
4.544e-06,-0.0012986400000000002
4.548e-06,0.002718096
4.552000000000001e-06,0.005898012
4.556e-06,0.0062327400000000005
4.56e-06,0.0042243720000000005
4.564000000000001e-06,0.000542364
4.568e-06,-0.003307008
4.5720000000000004e-06,-0.005984832
4.576e-06,-0.006486924
4.58e-06,-0.004311192
4.5840000000000005e-06,-0.000294456
4.588e-06,0.003554916
4.592e-06,0.006065376000000001
4.5960000000000006e-06,0.005898012
4.6e-06,0.003220188
4.604e-06,-0.000294456
4.608000000000001e-06,-0.004143828
4.612e-06,-0.00631956
4.616e-06,-0.0061521959999999995
4.620000000000001e-06,-0.0034743720000000003
4.624e-06,0.000542364
4.628e-06,0.004391736
4.632e-06,0.0062327400000000005
4.636e-06,0.00539592
4.6400000000000005e-06,0.002383368
4.644e-06,-0.0012986400000000002
4.648e-06,-0.004813284
4.6520000000000005e-06,-0.006486924
4.656e-06,-0.0056501039999999995
4.66e-06,-0.002302824
4.664000000000001e-06,0.0017139120000000002
4.668e-06,0.0052285560000000005
4.672e-06,0.006400104
4.676000000000001e-06,0.0047264640000000005
4.68e-06,0.0012118200000000002
4.684e-06,-0.0024701880000000003
4.688000000000001e-06,-0.0056501039999999995
4.692e-06,-0.006486924
4.6960000000000004e-06,-0.004813284
4.7e-06,-0.000963912
4.704e-06,0.00288546
4.7080000000000005e-06,0.0057306480000000005
4.712e-06,0.006065376000000001
4.716e-06,0.00372228
4.7200000000000005e-06,0.000207636
4.724e-06,-0.0034743720000000003
4.728e-06,-0.0061521959999999995
4.732000000000001e-06,-0.00631956
4.736e-06,-0.0038091000000000006
4.74e-06,0.000207636
4.744000000000001e-06,0.004057008
4.748e-06,0.006065376000000001
4.752e-06,0.005563284000000001
4.756000000000001e-06,0.002718096
4.76e-06,-0.000963912
4.7640000000000005e-06,-0.004478556
4.768e-06,-0.00631956
4.772e-06,-0.0056501039999999995
4.7760000000000005e-06,-0.0024701880000000003
4.78e-06,0.0013791839999999999
4.784e-06,0.005061192000000001
4.7880000000000006e-06,0.0062327400000000005
4.792e-06,0.0047264640000000005
4.796e-06,0.0013791839999999999
4.800000000000001e-06,-0.002302824
4.804e-06,-0.005315376
4.808e-06,-0.00631956
4.812000000000001e-06,-0.004813284
4.816e-06,-0.001131276
4.8200000000000004e-06,0.00288546
4.824e-06,0.0057306480000000005
4.828e-06,0.005898012
4.8320000000000005e-06,0.00372228
4.836e-06,0.000207636
4.84e-06,-0.0034743720000000003
4.8440000000000005e-06,-0.005984832
4.848e-06,-0.0061521959999999995
4.852e-06,-0.0034743720000000003
4.856000000000001e-06,0.000375
4.86e-06,0.0042243720000000005
4.864e-06,0.006065376000000001
4.868000000000001e-06,0.0052285560000000005
4.872e-06,0.002383368
4.876e-06,-0.0012986400000000002
4.880000000000001e-06,-0.0046459199999999996
4.884e-06,-0.00631956
4.8880000000000005e-06,-0.00548274
4.892e-06,-0.00213546
4.896e-06,0.0018812759999999999
4.9000000000000005e-06,0.0052285560000000005
4.904e-06,0.006065376000000001
4.908e-06,0.0042243720000000005
4.9120000000000006e-06,0.000877092
4.916e-06,-0.002804916
4.92e-06,-0.0056501039999999995
4.924000000000001e-06,-0.0061521959999999995
4.928e-06,-0.004311192
4.932e-06,-0.00046182000000000005
4.936000000000001e-06,0.003387552
4.94e-06,0.005898012
4.9440000000000004e-06,0.005563284000000001
4.948e-06,0.003052824
4.952e-06,-0.00046182000000000005
4.9560000000000005e-06,-0.004143828
4.96e-06,-0.0061521959999999995
4.964e-06,-0.0056501039999999995
4.9680000000000005e-06,-0.002804916
4.972e-06,0.0012118200000000002
4.976e-06,0.0047264640000000005
4.980000000000001e-06,0.006065376000000001
4.984e-06,0.004559100000000001
4.988e-06,0.0013791839999999999
4.992000000000001e-06,-0.00213546
4.996e-06,-0.005315376
5e-06,-0.00631956
5.004000000000001e-06,-0.0046459199999999996
5.008e-06,-0.000963912
5.0120000000000005e-06,0.00288546
5.016e-06,0.005563284000000001
5.02e-06,0.0057306480000000005
5.0240000000000005e-06,0.003387552
5.028e-06,-0.00012709199999999998
5.032e-06,-0.003641736
5.0360000000000006e-06,-0.005984832
5.04e-06,-0.005817468
5.044e-06,-0.003139644
5.048000000000001e-06,0.000709728
5.052e-06,0.004391736
5.056e-06,0.005898012
5.060000000000001e-06,0.004893828
5.064e-06,0.0017139120000000002
5.0680000000000004e-06,-0.0018007320000000002
5.072000000000001e-06,-0.004980648
5.076e-06,-0.0061521959999999995
5.0800000000000005e-06,-0.004813284
5.084e-06,-0.0012986400000000002
5.088e-06,0.002718096
5.0920000000000005e-06,0.005563284000000001
5.096e-06,0.0057306480000000005
5.1e-06,0.003387552
5.104000000000001e-06,4.0271999999999997e-05
5.108e-06,-0.0034743720000000003
5.112e-06,-0.005984832
5.116000000000001e-06,-0.005817468
5.12e-06,-0.003139644
5.124e-06,0.000542364
5.128000000000001e-06,0.0042243720000000005
5.132e-06,0.005898012
5.1360000000000005e-06,0.004893828
5.14e-06,0.0017139120000000002
5.144e-06,-0.0018007320000000002
5.1480000000000005e-06,-0.004980648
5.152e-06,-0.0061521959999999995
5.156e-06,-0.004813284
5.1600000000000006e-06,-0.001131276
5.164e-06,0.002718096
5.168e-06,0.00539592
5.172000000000001e-06,0.0057306480000000005
5.176e-06,0.003387552
5.18e-06,4.0271999999999997e-05
5.184000000000001e-06,-0.0034743720000000003
5.188e-06,-0.005817468
5.1920000000000004e-06,-0.0056501039999999995
5.196000000000001e-06,-0.0029722800000000003
5.2e-06,0.000709728
5.2040000000000005e-06,0.004391736
5.208e-06,0.005898012
5.212e-06,0.0047264640000000005
5.2160000000000005e-06,0.001546548
5.22e-06,-0.0019680960000000003
5.224e-06,-0.004980648
5.228000000000001e-06,-0.005984832
5.232e-06,-0.004478556
5.236e-06,-0.0007965480000000001
5.240000000000001e-06,0.00288546
5.244e-06,0.005563284000000001
5.248e-06,0.005563284000000001
5.252000000000001e-06,0.003220188
5.256e-06,-0.000294456
5.2600000000000005e-06,-0.0038091000000000006
5.264e-06,-0.005984832
5.268e-06,-0.00548274
5.2720000000000005e-06,-0.002637552
5.276e-06,0.0012118200000000002
5.28e-06,0.004559100000000001
5.2840000000000006e-06,0.005898012
5.288e-06,0.004391736
5.292e-06,0.0012118200000000002
5.296000000000001e-06,-0.002302824
5.3e-06,-0.005315376
5.304e-06,-0.005984832
5.308000000000001e-06,-0.004143828
5.312e-06,-0.000294456
5.3160000000000004e-06,0.003387552
5.320000000000001e-06,0.0057306480000000005
5.324e-06,0.0052285560000000005
5.3280000000000005e-06,0.002718096
5.332e-06,-0.0007965480000000001
5.336e-06,-0.004311192
5.3400000000000005e-06,-0.005984832
5.344e-06,-0.0051480119999999996
5.348e-06,-0.0019680960000000003
5.352000000000001e-06,0.0018812759999999999
5.356e-06,0.005061192000000001
5.36e-06,0.0057306480000000005
5.364000000000001e-06,0.003889644
5.368e-06,0.000375
5.372e-06,-0.0029722800000000003
5.376000000000001e-06,-0.0056501039999999995
5.38e-06,-0.005817468
5.3840000000000005e-06,-0.003307008
5.388e-06,0.000375
5.392e-06,0.004057008
5.3960000000000005e-06,0.0057306480000000005
5.4e-06,0.0047264640000000005
5.404e-06,0.0018812759999999999
5.4080000000000006e-06,-0.001633368
5.412e-06,-0.004813284
5.416e-06,-0.005984832
5.420000000000001e-06,-0.004478556
5.424e-06,-0.000963912
5.428e-06,0.002718096
5.432000000000001e-06,0.00539592
5.436e-06,0.00539592
5.4400000000000004e-06,0.003052824
5.444000000000001e-06,-0.000294456
5.448e-06,-0.0038091000000000006
5.4520000000000005e-06,-0.005817468
5.456e-06,-0.005315376
5.46e-06,-0.002302824
5.4640000000000005e-06,0.0013791839999999999
5.468e-06,0.0047264640000000005
5.472e-06,0.0057306480000000005
5.476000000000001e-06,0.004057008
5.48e-06,0.000709728
5.484e-06,-0.002637552
5.488000000000001e-06,-0.005315376
5.492e-06,-0.005817468
5.496e-06,-0.0034743720000000003
5.500000000000001e-06,0.000207636
5.504e-06,0.00372228
5.5080000000000005e-06,0.005563284000000001
5.512000000000001e-06,0.004893828
5.516e-06,0.0018812759999999999
5.5200000000000005e-06,-0.001466004
5.524e-06,-0.0046459199999999996
5.528e-06,-0.005817468
5.5320000000000006e-06,-0.004478556
5.536e-06,-0.000963912
5.54e-06,0.002718096
5.544000000000001e-06,0.0052285560000000005
5.548e-06,0.00539592
5.552e-06,0.003052824
5.556000000000001e-06,-0.00046182000000000005
5.56e-06,-0.0038091000000000006
5.5640000000000004e-06,-0.005817468
5.568000000000001e-06,-0.0051480119999999996
5.572e-06,-0.002302824
5.5760000000000005e-06,0.001546548
5.58e-06,0.0047264640000000005
5.584e-06,0.005563284000000001
5.5880000000000005e-06,0.003889644
5.592e-06,0.000542364
5.596e-06,-0.002804916
5.600000000000001e-06,-0.00548274
5.604e-06,-0.0056501039999999995
5.608e-06,-0.003139644
5.612000000000001e-06,0.000375
5.616e-06,0.004057008
5.62e-06,0.005563284000000001
5.624000000000001e-06,0.004559100000000001
5.628e-06,0.001546548
5.6320000000000005e-06,-0.0019680960000000003
5.636000000000001e-06,-0.004980648
5.64e-06,-0.005817468
5.6440000000000005e-06,-0.004143828
5.648e-06,-0.00046182000000000005
5.652e-06,0.003220188
5.6560000000000006e-06,0.00539592
5.66e-06,0.005061192000000001
5.664e-06,0.002550732
5.668000000000001e-06,-0.000963912
5.672e-06,-0.004311192
5.676e-06,-0.005817468
5.680000000000001e-06,-0.004813284
5.684e-06,-0.001466004
5.6880000000000004e-06,0.002216004
5.692000000000001e-06,0.005061192000000001
5.696e-06,0.00539592
5.7000000000000005e-06,0.003220188
5.704e-06,-0.00012709199999999998
5.708e-06,-0.0034743720000000003
5.7120000000000005e-06,-0.0056501039999999995
5.716e-06,-0.0051480119999999996
5.72e-06,-0.0024701880000000003
5.724000000000001e-06,0.0013791839999999999
5.728e-06,0.004559100000000001
5.732e-06,0.005563284000000001
5.736000000000001e-06,0.003889644
5.74e-06,0.000709728
5.744e-06,-0.002804916
5.748000000000001e-06,-0.005315376
5.752e-06,-0.00548274
5.7560000000000005e-06,-0.003139644
5.760000000000001e-06,0.000542364
5.764e-06,0.004057008
5.7680000000000005e-06,0.005563284000000001
5.772e-06,0.004391736
5.776e-06,0.0013791839999999999
5.7800000000000006e-06,-0.0019680960000000003
5.784e-06,-0.004980648
5.788e-06,-0.0056501039999999995
5.792000000000001e-06,-0.0038091000000000006
5.796e-06,-0.00012709199999999998
5.8e-06,0.003387552
5.804000000000001e-06,0.00539592
5.808e-06,0.004893828
5.8120000000000004e-06,0.00204864
5.816000000000001e-06,-0.0012986400000000002
5.82e-06,-0.004478556
5.8240000000000005e-06,-0.0056501039999999995
5.828000000000001e-06,-0.004311192
5.832e-06,-0.000963912
5.8360000000000005e-06,0.002718096
5.84e-06,0.0052285560000000005
5.844e-06,0.005061192000000001
5.848000000000001e-06,0.002718096
5.852e-06,-0.000629184
5.856e-06,-0.003976464
5.860000000000001e-06,-0.0056501039999999995
5.864e-06,-0.004813284
5.868e-06,-0.001633368
5.872000000000001e-06,0.00204864
5.876e-06,0.004893828
5.8800000000000005e-06,0.0052285560000000005
5.884000000000001e-06,0.003220188
5.888e-06,4.0271999999999997e-05
5.8920000000000005e-06,-0.0034743720000000003
5.896e-06,-0.00548274
5.9e-06,-0.0051480119999999996
5.9040000000000006e-06,-0.002302824
5.908e-06,0.0013791839999999999
5.912e-06,0.004559100000000001
5.916000000000001e-06,0.00539592
5.92e-06,0.00372228
5.924e-06,0.000375
5.928000000000001e-06,-0.0029722800000000003
5.932e-06,-0.005315376
5.9360000000000004e-06,-0.005315376
5.940000000000001e-06,-0.002637552
5.944e-06,0.000877092
5.9480000000000005e-06,0.0042243720000000005
5.952000000000001e-06,0.00539592
5.956e-06,0.004057008
5.9600000000000005e-06,0.000877092
5.964e-06,-0.002637552
5.968e-06,-0.0051480119999999996
5.972000000000001e-06,-0.00548274
5.976e-06,-0.003139644
5.98e-06,0.000375
5.984000000000001e-06,0.003889644
5.988e-06,0.00539592
5.992e-06,0.0042243720000000005
5.996000000000001e-06,0.0013791839999999999
6e-06,-0.00213546
6.0040000000000005e-06,-0.004980648
6.008000000000001e-06,-0.00548274
6.012e-06,-0.0034743720000000003
6.0160000000000005e-06,4.0271999999999997e-05
6.02e-06,0.003554916
6.024e-06,0.00539592
6.0280000000000006e-06,0.004559100000000001
6.032e-06,0.0017139120000000002
6.036e-06,-0.0018007320000000002
6.040000000000001e-06,-0.0046459199999999996
6.044e-06,-0.00548274
6.048e-06,-0.0038091000000000006
6.052000000000001e-06,-0.000294456
6.056e-06,0.003220188
6.0600000000000004e-06,0.0052285560000000005
6.064000000000001e-06,0.0047264640000000005
6.068e-06,0.00204864
6.0720000000000005e-06,-0.001466004
6.076000000000001e-06,-0.004478556
6.08e-06,-0.00548274
6.0840000000000005e-06,-0.003976464
6.088e-06,-0.000629184
6.092e-06,0.00288546
6.096000000000001e-06,0.005061192000000001
6.1e-06,0.0047264640000000005
6.104e-06,0.002216004
6.108000000000001e-06,-0.001131276
6.112e-06,-0.004311192
6.116e-06,-0.00548274
6.120000000000001e-06,-0.004143828
6.124e-06,-0.0007965480000000001
6.1280000000000005e-06,0.002718096
6.132000000000001e-06,0.005061192000000001
6.136e-06,0.004893828
6.1400000000000005e-06,0.002383368
6.144000000000001e-06,-0.000963912
6.148e-06,-0.004143828
6.1520000000000006e-06,-0.00548274
6.156e-06,-0.004311192
6.16e-06,-0.000963912
6.164000000000001e-06,0.002550732
6.168e-06,0.004893828
6.172e-06,0.004893828
6.176000000000001e-06,0.002550732
6.18e-06,-0.0007965480000000001
6.184e-06,-0.003976464
6.188000000000001e-06,-0.00548274
6.192e-06,-0.004311192
6.1960000000000005e-06,-0.001131276
6.200000000000001e-06,0.002383368
6.204e-06,0.004893828
6.2080000000000005e-06,0.004893828
6.212e-06,0.002718096
6.216e-06,-0.000629184
6.220000000000001e-06,-0.003976464
6.224e-06,-0.00548274
6.228e-06,-0.004478556
6.232000000000001e-06,-0.001131276
6.236e-06,0.002383368
6.24e-06,0.004893828
6.244000000000001e-06,0.004893828
6.248e-06,0.002718096
6.2520000000000004e-06,-0.000629184
6.256000000000001e-06,-0.003976464
6.26e-06,-0.00548274
6.2640000000000005e-06,-0.004478556
6.268000000000001e-06,-0.0012986400000000002
6.272e-06,0.002383368
6.2760000000000006e-06,0.004893828
6.28e-06,0.005061192000000001
6.284e-06,0.002718096
6.288000000000001e-06,-0.000629184
6.292e-06,-0.0038091000000000006
6.296e-06,-0.00548274
6.300000000000001e-06,-0.004478556
6.304e-06,-0.001131276
6.308e-06,0.002383368
6.312000000000001e-06,0.004893828
6.316e-06,0.004893828
6.3200000000000005e-06,0.002718096
6.324000000000001e-06,-0.000629184
6.328e-06,-0.003976464
6.3320000000000005e-06,-0.00548274
6.336e-06,-0.004311192
6.34e-06,-0.001131276
6.344000000000001e-06,0.002383368
6.348e-06,0.004893828
6.352e-06,0.004893828
6.356000000000001e-06,0.002550732
6.36e-06,-0.0007965480000000001
6.364e-06,-0.003976464
6.368000000000001e-06,-0.00548274
6.372e-06,-0.004311192
6.3760000000000004e-06,-0.000963912
6.380000000000001e-06,0.002550732
6.384e-06,0.004893828
6.3880000000000005e-06,0.004893828
6.392000000000001e-06,0.002383368
6.396e-06,-0.000963912
6.4000000000000006e-06,-0.004143828
6.404e-06,-0.00548274
6.408e-06,-0.004143828
6.412000000000001e-06,-0.0007965480000000001
6.416e-06,0.002718096
6.42e-06,0.005061192000000001
6.424000000000001e-06,0.0047264640000000005
6.428e-06,0.002216004
6.432e-06,-0.001131276
6.436000000000001e-06,-0.004311192
6.44e-06,-0.005315376
6.4440000000000005e-06,-0.003976464
6.448000000000001e-06,-0.000629184
6.452e-06,0.00288546
6.4560000000000005e-06,0.005061192000000001
6.46e-06,0.0047264640000000005
6.464e-06,0.00204864
6.468000000000001e-06,-0.0012986400000000002
6.472e-06,-0.004311192
6.476e-06,-0.005315376
6.480000000000001e-06,-0.0038091000000000006
6.484e-06,-0.000294456
6.488e-06,0.003220188
6.492000000000001e-06,0.005061192000000001
6.496e-06,0.004391736
6.5000000000000004e-06,0.0017139120000000002
6.504000000000001e-06,-0.001633368
6.508e-06,-0.0046459199999999996
6.5120000000000005e-06,-0.005315376
6.516000000000001e-06,-0.0034743720000000003
6.52e-06,4.0271999999999997e-05
6.5240000000000006e-06,0.003387552
6.528e-06,0.005061192000000001
6.532e-06,0.0042243720000000005
6.536000000000001e-06,0.0013791839999999999
6.54e-06,-0.0019680960000000003
6.544e-06,-0.004813284
6.548000000000001e-06,-0.005315376
6.552e-06,-0.003139644
6.556e-06,0.000375
6.560000000000001e-06,0.00372228
6.564e-06,0.0052285560000000005
6.5680000000000005e-06,0.004057008
6.572000000000001e-06,0.000877092
6.576e-06,-0.0024701880000000003
6.5800000000000005e-06,-0.004980648
6.584000000000001e-06,-0.0051480119999999996
6.588e-06,-0.002804916
6.592000000000001e-06,0.000709728
6.596e-06,0.004057008
6.6e-06,0.0052285560000000005
6.604000000000001e-06,0.00372228
6.608e-06,0.000542364
6.612e-06,-0.002804916
6.616000000000001e-06,-0.0051480119999999996
6.62e-06,-0.004980648
6.6240000000000004e-06,-0.002302824
6.628000000000001e-06,0.0012118200000000002
6.632e-06,0.004391736
6.6360000000000005e-06,0.005061192000000001
6.640000000000001e-06,0.003387552
6.644e-06,0.000207636
6.6480000000000006e-06,-0.003307008
6.652e-06,-0.0051480119999999996
6.656e-06,-0.0046459199999999996
6.660000000000001e-06,-0.001633368
6.664e-06,0.0018812759999999999
6.668e-06,0.0047264640000000005
6.672000000000001e-06,0.005061192000000001
6.676e-06,0.00288546
6.68e-06,-0.00046182000000000005
6.684000000000001e-06,-0.0038091000000000006
6.688e-06,-0.005315376
6.6920000000000005e-06,-0.004311192
6.696000000000001e-06,-0.001131276
6.7e-06,0.002383368
6.7040000000000005e-06,0.004893828
6.708000000000001e-06,0.0047264640000000005
6.712e-06,0.002383368
6.716000000000001e-06,-0.000963912
6.72e-06,-0.004143828
6.724e-06,-0.005315376
6.728000000000001e-06,-0.0038091000000000006
6.732e-06,-0.00046182000000000005
6.736e-06,0.003052824
6.740000000000001e-06,0.005061192000000001
6.744e-06,0.004391736
6.7480000000000004e-06,0.0017139120000000002
6.752000000000001e-06,-0.001633368
6.756e-06,-0.0046459199999999996
6.7600000000000005e-06,-0.005315376
6.764000000000001e-06,-0.003307008
6.768e-06,0.000207636
6.7720000000000006e-06,0.003554916
6.776e-06,0.005061192000000001
6.78e-06,0.004057008
6.784000000000001e-06,0.001044456
6.788e-06,-0.002302824
6.792e-06,-0.004980648
6.796000000000001e-06,-0.0051480119999999996
6.8e-06,-0.002637552
6.804e-06,0.000877092
6.808000000000001e-06,0.004057008
6.812e-06,0.0052285560000000005
6.8160000000000005e-06,0.003554916
6.820000000000001e-06,0.000375
6.824e-06,-0.0029722800000000003
6.8280000000000005e-06,-0.0051480119999999996
6.832000000000001e-06,-0.004813284
6.836e-06,-0.0018007320000000002
6.840000000000001e-06,0.0017139120000000002
6.844e-06,0.004559100000000001
6.848e-06,0.005061192000000001
6.852000000000001e-06,0.00288546
6.856e-06,-0.000294456
6.86e-06,-0.0038091000000000006
6.864000000000001e-06,-0.005315376
6.868e-06,-0.004311192
6.8720000000000004e-06,-0.000963912
6.876000000000001e-06,0.002383368
6.88e-06,0.004893828
6.8840000000000005e-06,0.0047264640000000005
6.888000000000001e-06,0.002216004
6.892e-06,-0.0012986400000000002
6.8960000000000006e-06,-0.004311192
6.900000000000001e-06,-0.005315376
6.904e-06,-0.003641736
6.908000000000001e-06,-0.00012709199999999998
6.912e-06,0.003220188
6.916e-06,0.005061192000000001
6.920000000000001e-06,0.0042243720000000005
6.924e-06,0.0013791839999999999
6.928e-06,-0.00213546
6.932000000000001e-06,-0.004813284
6.936e-06,-0.0051480119999999996
6.9400000000000005e-06,-0.002804916
6.944000000000001e-06,0.000709728
6.948e-06,0.003889644
6.9520000000000005e-06,0.0052285560000000005
6.956000000000001e-06,0.00372228
6.96e-06,0.000375
6.964000000000001e-06,-0.0029722800000000003
6.968e-06,-0.0051480119999999996
6.972e-06,-0.004813284
6.976000000000001e-06,-0.0019680960000000003
6.98e-06,0.0017139120000000002
6.984e-06,0.004559100000000001
6.988000000000001e-06,0.005061192000000001
6.992e-06,0.00288546
6.9960000000000004e-06,-0.00046182000000000005
7.000000000000001e-06,-0.0038091000000000006
7.004e-06,-0.005315376
7.0080000000000005e-06,-0.004143828
7.012000000000001e-06,-0.0007965480000000001
7.016e-06,0.002718096
7.0200000000000006e-06,0.004893828
7.024000000000001e-06,0.004559100000000001
7.028e-06,0.0018812759999999999
7.032000000000001e-06,-0.001466004
7.036e-06,-0.004478556
7.04e-06,-0.005315376
7.044000000000001e-06,-0.003307008
7.048e-06,0.000207636
7.052e-06,0.003554916
7.056000000000001e-06,0.005061192000000001
7.06e-06,0.004057008
7.0640000000000005e-06,0.000877092
7.068000000000001e-06,-0.002637552
7.072e-06,-0.0051480119999999996
7.0760000000000005e-06,-0.004980648
7.080000000000001e-06,-0.002302824
7.084e-06,0.0012118200000000002
7.088000000000001e-06,0.004391736
7.092e-06,0.005061192000000001
7.096e-06,0.003220188
7.100000000000001e-06,-0.00012709199999999998
7.104e-06,-0.003641736
7.108e-06,-0.005315376
7.112000000000001e-06,-0.004311192
7.116e-06,-0.001131276
7.1200000000000004e-06,0.002383368
7.124000000000001e-06,0.004893828
7.128e-06,0.0047264640000000005
7.1320000000000005e-06,0.00204864
7.136000000000001e-06,-0.0012986400000000002
7.14e-06,-0.004478556
7.1440000000000005e-06,-0.005315376
7.148000000000001e-06,-0.0034743720000000003
7.152e-06,0.000207636
7.156000000000001e-06,0.003554916
7.16e-06,0.005061192000000001
7.164e-06,0.004057008
7.168000000000001e-06,0.000877092
7.172e-06,-0.002637552
7.176e-06,-0.0051480119999999996
7.180000000000001e-06,-0.004980648
7.184e-06,-0.002302824
7.1880000000000005e-06,0.0012118200000000002
7.192000000000001e-06,0.004391736
7.196e-06,0.005061192000000001
7.2000000000000005e-06,0.003052824
7.204000000000001e-06,-0.000294456
7.208e-06,-0.003641736
7.2120000000000006e-06,-0.005315376
7.216e-06,-0.004311192
7.22e-06,-0.000963912
7.224000000000001e-06,0.002550732
7.228e-06,0.004893828
7.232e-06,0.004559100000000001
7.236000000000001e-06,0.0018812759999999999
7.24e-06,-0.001633368
7.2440000000000004e-06,-0.0046459199999999996
7.248000000000001e-06,-0.005315376
7.252e-06,-0.003139644
7.2560000000000005e-06,0.000375
7.260000000000001e-06,0.00372228
7.264e-06,0.0052285560000000005
7.2680000000000005e-06,0.00372228
7.272000000000001e-06,0.000542364
7.276e-06,-0.0029722800000000003
7.280000000000001e-06,-0.0051480119999999996
7.284e-06,-0.004813284
7.288e-06,-0.0019680960000000003
7.292000000000001e-06,0.0017139120000000002
7.296e-06,0.004559100000000001
7.3e-06,0.004893828
7.304000000000001e-06,0.002718096
7.308e-06,-0.0007965480000000001
7.3120000000000005e-06,-0.004143828
7.316000000000001e-06,-0.005315376
7.32e-06,-0.0038091000000000006
7.3240000000000005e-06,-0.000294456
7.328000000000001e-06,0.003052824
7.332e-06,0.005061192000000001
7.3360000000000006e-06,0.0042243720000000005
7.340000000000001e-06,0.0012118200000000002
7.344e-06,-0.002302824
7.348000000000001e-06,-0.004980648
7.352e-06,-0.0051480119999999996
7.356e-06,-0.002637552
7.360000000000001e-06,0.001044456
7.364e-06,0.0042243720000000005
7.3680000000000004e-06,0.005061192000000001
7.372000000000001e-06,0.003220188
7.376e-06,-0.00012709199999999998
7.3800000000000005e-06,-0.003641736
7.384000000000001e-06,-0.005315376
7.388e-06,-0.004311192
7.3920000000000005e-06,-0.000963912
7.396000000000001e-06,0.002550732
7.4e-06,0.004893828
7.404000000000001e-06,0.004559100000000001
7.408e-06,0.0018812759999999999
7.412e-06,-0.001633368
7.416000000000001e-06,-0.0046459199999999996
7.42e-06,-0.0051480119999999996
7.424e-06,-0.0029722800000000003
7.428000000000001e-06,0.000542364
7.432e-06,0.003889644
7.4360000000000005e-06,0.005061192000000001
7.440000000000001e-06,0.003554916
7.444e-06,0.000375
7.4480000000000005e-06,-0.003307008
7.452000000000001e-06,-0.005315376
7.456e-06,-0.0046459199999999996
7.4600000000000006e-06,-0.001466004
7.464000000000001e-06,0.002216004
7.468e-06,0.0047264640000000005
7.472000000000001e-06,0.0047264640000000005
7.476e-06,0.002216004
7.48e-06,-0.0012986400000000002
7.484000000000001e-06,-0.004478556
7.488e-06,-0.005315376
7.4920000000000004e-06,-0.003307008
7.496000000000001e-06,0.000375
7.5e-06,0.00372228
7.5040000000000005e-06,0.005061192000000001
7.508000000000001e-06,0.003889644
7.512e-06,0.000542364
7.5160000000000005e-06,-0.0029722800000000003
7.520000000000001e-06,-0.005315376
7.524e-06,-0.0046459199999999996
7.528000000000001e-06,-0.001633368
7.532e-06,0.0018812759999999999
7.536e-06,0.0047264640000000005
7.540000000000001e-06,0.004893828
7.544e-06,0.002383368
7.548e-06,-0.001131276
7.552000000000001e-06,-0.004311192
7.556e-06,-0.005315376
7.5600000000000005e-06,-0.0034743720000000003
7.564000000000001e-06,0.000207636
7.568e-06,0.003554916
7.5720000000000005e-06,0.005061192000000001
7.576000000000001e-06,0.003889644
7.58e-06,0.000542364
7.5840000000000006e-06,-0.0029722800000000003
7.588000000000001e-06,-0.0051480119999999996
7.592e-06,-0.0046459199999999996
7.596000000000001e-06,-0.0018007320000000002
7.6e-06,0.0018812759999999999
7.604e-06,0.0047264640000000005
7.608000000000001e-06,0.004893828
7.612e-06,0.002383368
7.6160000000000004e-06,-0.001131276
7.620000000000001e-06,-0.004311192
7.624e-06,-0.005315376
7.6280000000000005e-06,-0.0034743720000000003
7.632e-06,0.000207636
7.636000000000001e-06,0.003554916
7.64e-06,0.005061192000000001
7.644e-06,0.00372228
7.648e-06,0.000542364
7.652e-06,-0.0029722800000000003
7.656000000000001e-06,-0.0051480119999999996
7.660000000000001e-06,-0.0046459199999999996
7.664e-06,-0.001633368
7.668e-06,0.00204864
7.672e-06,0.0047264640000000005
7.676e-06,0.0047264640000000005
7.680000000000001e-06,0.002216004
7.684000000000001e-06,-0.0012986400000000002
7.688e-06,-0.004478556
7.692e-06,-0.005315376
7.696e-06,-0.003139644
7.7e-06,0.000375
7.704000000000001e-06,0.00372228
7.708e-06,0.005061192000000001
7.712e-06,0.003554916
7.716e-06,0.000375
7.72e-06,-0.003139644
7.724000000000001e-06,-0.005315376
7.728000000000001e-06,-0.004478556
7.732e-06,-0.0012986400000000002
7.736e-06,0.002216004
7.74e-06,0.0047264640000000005
7.744e-06,0.004559100000000001
7.748000000000001e-06,0.0018812759999999999
7.752e-06,-0.001633368
7.756e-06,-0.0046459199999999996
7.76e-06,-0.0051480119999999996
7.764e-06,-0.002804916
7.768e-06,0.000709728
7.772000000000001e-06,0.003889644
7.776e-06,0.005061192000000001
7.78e-06,0.003220188
7.784e-06,-0.00012709199999999998
7.788e-06,-0.003641736
7.792000000000001e-06,-0.005315376
7.796000000000001e-06,-0.004143828
7.8e-06,-0.0007965480000000001
7.804e-06,0.002718096
7.808e-06,0.004893828
7.812e-06,0.004391736
7.816000000000001e-06,0.0013791839999999999
7.82e-06,-0.00213546
7.824e-06,-0.004813284
7.828e-06,-0.004980648
7.832e-06,-0.002302824
7.836000000000001e-06,0.0012118200000000002
7.840000000000001e-06,0.0042243720000000005
7.844e-06,0.004893828
7.848e-06,0.002718096
7.852e-06,-0.000629184
7.856e-06,-0.003976464
7.860000000000001e-06,-0.005315376
7.864000000000001e-06,-0.003641736
7.868e-06,-0.00012709199999999998
7.872e-06,0.003220188
7.876e-06,0.005061192000000001
7.88e-06,0.003889644
7.884000000000001e-06,0.000709728
7.888e-06,-0.002804916
7.892e-06,-0.0051480119999999996
7.896e-06,-0.0046459199999999996
7.9e-06,-0.001633368
7.904000000000001e-06,0.0018812759999999999
7.908000000000001e-06,0.004559100000000001
7.912e-06,0.004559100000000001
7.916e-06,0.00204864
7.92e-06,-0.001466004
7.924e-06,-0.004478556
7.928000000000001e-06,-0.0051480119999999996
7.932000000000001e-06,-0.0029722800000000003
7.936e-06,0.000542364
7.94e-06,0.003889644
7.944e-06,0.004893828
7.948e-06,0.003220188
7.952000000000001e-06,-0.00012709199999999998
7.956e-06,-0.003641736
7.96e-06,-0.0051480119999999996
7.964e-06,-0.003976464
7.968e-06,-0.000629184
7.972000000000001e-06,0.00288546
7.976000000000001e-06,0.004893828
7.98e-06,0.0042243720000000005
7.984e-06,0.001044456
7.988e-06,-0.0024701880000000003
7.992e-06,-0.004980648
7.996000000000001e-06,-0.004813284
8.000000000000001e-06,-0.0019680960000000003
8.004e-06,0.001546548
8.008e-06,0.004391736
8.012e-06,0.0047264640000000005
8.016e-06,0.002383368
8.020000000000001e-06,-0.001131276
8.024e-06,-0.004311192
8.028e-06,-0.0051480119999999996
8.032e-06,-0.003139644
8.036e-06,0.000375
8.040000000000001e-06,0.00372228
8.044000000000001e-06,0.004893828
8.048e-06,0.003387552
8.052e-06,4.0271999999999997e-05
8.056e-06,-0.0034743720000000003
8.06e-06,-0.0051480119999999996
8.064000000000001e-06,-0.004143828
8.068e-06,-0.0007965480000000001
8.072e-06,0.002718096
8.076e-06,0.004893828
8.08e-06,0.0042243720000000005
8.084000000000001e-06,0.0012118200000000002
8.088000000000001e-06,-0.002302824
8.092e-06,-0.004980648
8.096e-06,-0.004813284
8.1e-06,-0.0019680960000000003
8.104e-06,0.001546548
8.108000000000001e-06,0.004391736
8.112000000000001e-06,0.0047264640000000005
8.116e-06,0.002383368
8.12e-06,-0.001131276
8.124e-06,-0.004311192
8.128e-06,-0.0051480119999999996
8.132000000000001e-06,-0.003139644
8.136e-06,0.000375
8.14e-06,0.00372228
8.144e-06,0.004893828
8.148e-06,0.003220188
8.152000000000001e-06,-0.00012709199999999998
8.156000000000001e-06,-0.0034743720000000003
8.16e-06,-0.005315376
8.164e-06,-0.003976464
8.168e-06,-0.000629184
8.172e-06,0.00288546
8.176000000000001e-06,0.004893828
8.180000000000001e-06,0.004057008
8.184e-06,0.000877092
8.188e-06,-0.002637552
8.192e-06,-0.004980648
8.196e-06,-0.0046459199999999996
8.200000000000001e-06,-0.001633368
8.204e-06,0.0018812759999999999
8.208e-06,0.004559100000000001
8.212e-06,0.004559100000000001
8.216e-06,0.00204864
8.220000000000001e-06,-0.001633368
8.224000000000001e-06,-0.0046459199999999996
8.228e-06,-0.004980648
8.232e-06,-0.002637552
8.236e-06,0.000877092
8.24e-06,0.004057008
8.244000000000001e-06,0.004893828
8.248000000000001e-06,0.00288546
8.252e-06,-0.000629184
8.256e-06,-0.003976464
8.26e-06,-0.0051480119999999996
8.264e-06,-0.0034743720000000003
8.268000000000001e-06,4.0271999999999997e-05
8.272e-06,0.003387552
8.276e-06,0.004893828
8.28e-06,0.003554916
8.284e-06,0.000375
8.288000000000001e-06,-0.003139644
8.292000000000001e-06,-0.0051480119999999996
8.296e-06,-0.004143828
8.3e-06,-0.000963912
8.304e-06,0.002550732
8.308e-06,0.0047264640000000005
8.312000000000001e-06,0.0042243720000000005
8.316000000000001e-06,0.0012118200000000002
8.32e-06,-0.0024701880000000003
8.324e-06,-0.004980648
8.328e-06,-0.0046459199999999996
8.332000000000001e-06,-0.0018007320000000002
8.336000000000001e-06,0.0017139120000000002
8.34e-06,0.004391736
8.344e-06,0.004559100000000001
8.348e-06,0.00204864
8.352e-06,-0.001466004
8.356000000000001e-06,-0.004478556
8.360000000000001e-06,-0.004980648
8.364e-06,-0.002637552
8.368e-06,0.000877092
8.372e-06,0.004057008
8.376e-06,0.0047264640000000005
8.380000000000001e-06,0.002718096
8.384e-06,-0.000629184
8.388e-06,-0.003976464
8.392e-06,-0.0051480119999999996
8.396e-06,-0.003307008
8.400000000000001e-06,0.000207636
8.404000000000001e-06,0.003554916
8.408e-06,0.004893828
8.412e-06,0.003387552
8.416e-06,4.0271999999999997e-05
8.42e-06,-0.0034743720000000003
8.424000000000001e-06,-0.0051480119999999996
8.428000000000001e-06,-0.003976464
8.432e-06,-0.000629184
8.436e-06,0.00288546
8.44e-06,0.0047264640000000005
8.444e-06,0.003889644
8.448000000000001e-06,0.000709728
8.452e-06,-0.002804916
8.456e-06,-0.004980648
8.46e-06,-0.004478556
8.464e-06,-0.0012986400000000002
8.468000000000001e-06,0.002216004
8.472000000000001e-06,0.004559100000000001
8.476e-06,0.0042243720000000005
8.48e-06,0.0013791839999999999
8.484e-06,-0.00213546
8.488e-06,-0.004813284
8.492000000000001e-06,-0.004813284
8.496000000000001e-06,-0.00213546
8.5e-06,0.001546548
8.504e-06,0.004391736
8.508e-06,0.004559100000000001
8.512e-06,0.00204864
8.516000000000001e-06,-0.001466004
8.52e-06,-0.004478556
8.524e-06,-0.004980648
8.528e-06,-0.002637552
8.532e-06,0.000877092
8.536000000000001e-06,0.004057008
8.540000000000001e-06,0.0047264640000000005
8.544e-06,0.002718096
8.548e-06,-0.0007965480000000001
8.552e-06,-0.004143828
8.556e-06,-0.0051480119999999996
8.560000000000001e-06,-0.003139644
8.564000000000001e-06,0.000375
8.568e-06,0.003554916
8.572e-06,0.0047264640000000005
8.576e-06,0.003220188
8.580000000000001e-06,-0.000294456
8.584000000000001e-06,-0.003641736
8.588e-06,-0.0051480119999999996
8.592e-06,-0.003641736
8.596e-06,-0.000294456
8.6e-06,0.003220188
8.604000000000001e-06,0.0047264640000000005
8.608000000000001e-06,0.003554916
8.612e-06,0.000375
8.616e-06,-0.003139644
8.62e-06,-0.0051480119999999996
8.624e-06,-0.003976464
8.628000000000001e-06,-0.0007965480000000001
8.632000000000001e-06,0.002718096
8.636e-06,0.0047264640000000005
8.64e-06,0.003889644
8.644e-06,0.000709728
8.648000000000001e-06,-0.002637552
8.652000000000001e-06,-0.004980648
8.656e-06,-0.004311192
8.66e-06,-0.0012986400000000002
8.664e-06,0.002216004
8.668e-06,0.004559100000000001
8.672000000000001e-06,0.0042243720000000005
8.676000000000001e-06,0.0012118200000000002
8.68e-06,-0.002302824
8.684e-06,-0.004813284
8.688e-06,-0.0046459199999999996
8.692e-06,-0.0018007320000000002
8.696000000000001e-06,0.0017139120000000002
8.7e-06,0.004391736
8.704e-06,0.004391736
8.708e-06,0.0017139120000000002
8.712e-06,-0.0018007320000000002
8.716000000000001e-06,-0.0046459199999999996
8.720000000000001e-06,-0.004813284
8.724e-06,-0.00213546
8.728e-06,0.0013791839999999999
8.732e-06,0.0042243720000000005
8.736e-06,0.004559100000000001
8.740000000000001e-06,0.00204864
8.744000000000001e-06,-0.001466004
8.748e-06,-0.004478556
8.752e-06,-0.004813284
8.756e-06,-0.0024701880000000003
8.76e-06,0.000877092
8.764000000000001e-06,0.004057008
8.768e-06,0.004559100000000001
8.772e-06,0.002383368
8.776e-06,-0.001131276
8.78e-06,-0.004143828
8.784000000000001e-06,-0.004980648
8.788000000000001e-06,-0.002804916
8.792e-06,0.000542364
8.796e-06,0.003889644
8.8e-06,0.0047264640000000005
8.804e-06,0.002718096
8.808000000000001e-06,-0.0007965480000000001
8.812000000000001e-06,-0.003976464
8.816e-06,-0.004980648
8.82e-06,-0.003139644
8.824e-06,0.000375
8.828000000000001e-06,0.003554916
8.832000000000001e-06,0.0047264640000000005
8.836e-06,0.00288546
8.84e-06,-0.00046182000000000005
8.844e-06,-0.0038091000000000006
8.848e-06,-0.004980648
8.852000000000001e-06,-0.003307008
8.856000000000001e-06,0.000207636
8.86e-06,0.003387552
8.864e-06,0.0047264640000000005
8.868e-06,0.003052824
8.872e-06,-0.00012709199999999998
8.876000000000001e-06,-0.003641736
8.880000000000001e-06,-0.004980648
8.884e-06,-0.0034743720000000003
8.888e-06,-0.00012709199999999998
8.892e-06,0.003220188
8.896000000000001e-06,0.004559100000000001
8.900000000000001e-06,0.003220188
8.904e-06,4.0271999999999997e-05
8.908e-06,-0.0034743720000000003
8.912e-06,-0.004980648
8.916e-06,-0.003641736
8.920000000000001e-06,-0.000294456
8.924000000000001e-06,0.003052824
8.928e-06,0.004559100000000001
8.932e-06,0.003387552
8.936e-06,0.000207636
8.94e-06,-0.003307008
8.944000000000001e-06,-0.004980648
8.948000000000001e-06,-0.003641736
8.952e-06,-0.00046182000000000005
8.956e-06,0.00288546
8.96e-06,0.004559100000000001
8.964000000000001e-06,0.003387552
8.968000000000001e-06,0.000375
8.972e-06,-0.003139644
8.976e-06,-0.004980648
8.98e-06,-0.0038091000000000006
8.984e-06,-0.00046182000000000005
8.988000000000001e-06,0.00288546
8.992000000000001e-06,0.004559100000000001
8.996e-06,0.003554916
9e-06,0.000375
9.004e-06,-0.0029722800000000003
9.008e-06,-0.004813284
9.012000000000001e-06,-0.0038091000000000006
9.016e-06,-0.000629184
9.02e-06,0.00288546
9.024e-06,0.004559100000000001
9.028e-06,0.003554916
9.032000000000001e-06,0.000375
9.036000000000001e-06,-0.0029722800000000003
9.04e-06,-0.004813284
9.044e-06,-0.0038091000000000006
9.048e-06,-0.000629184
9.052e-06,0.002718096
9.056000000000001e-06,0.004559100000000001
9.060000000000001e-06,0.003554916
9.064e-06,0.000375
9.068e-06,-0.0029722800000000003
9.072e-06,-0.004813284
9.076000000000001e-06,-0.0038091000000000006
9.080000000000001e-06,-0.000629184
9.084e-06,0.002718096
9.088e-06,0.004559100000000001
9.092e-06,0.003554916
9.096e-06,0.000375
9.100000000000001e-06,-0.0029722800000000003
9.104000000000001e-06,-0.004813284
9.108e-06,-0.0038091000000000006
9.112e-06,-0.000629184
9.116e-06,0.002718096
9.12e-06,0.004559100000000001
9.124000000000001e-06,0.003387552
9.128000000000001e-06,0.000375
9.132e-06,-0.003139644
9.136e-06,-0.004813284
9.14e-06,-0.0038091000000000006
9.144000000000001e-06,-0.00046182000000000005
9.148000000000001e-06,0.002718096
9.152e-06,0.004391736
9.156e-06,0.003387552
9.16e-06,0.000375
9.164e-06,-0.003139644
9.168000000000001e-06,-0.004813284
9.172000000000001e-06,-0.003641736
9.176e-06,-0.00046182000000000005
9.18e-06,0.00288546
9.184e-06,0.004391736
9.188e-06,0.003220188
9.192000000000001e-06,0.000207636
9.196000000000001e-06,-0.003139644
9.2e-06,-0.004813284
9.204e-06,-0.0034743720000000003
9.208e-06,-0.000294456
9.212000000000001e-06,0.00288546
9.216000000000001e-06,0.004391736
9.22e-06,0.003220188
9.224e-06,4.0271999999999997e-05
9.228e-06,-0.003307008
9.232e-06,-0.004813284
9.236000000000001e-06,-0.0034743720000000003
9.240000000000001e-06,-0.00012709199999999998
9.244e-06,0.003052824
9.248e-06,0.004391736
9.252e-06,0.003052824
9.256e-06,-0.00012709199999999998
9.260000000000001e-06,-0.0034743720000000003
9.264e-06,-0.004813284
9.268e-06,-0.003307008
9.272e-06,4.0271999999999997e-05
9.276e-06,0.003220188
9.280000000000001e-06,0.004391736
9.284000000000001e-06,0.002718096
9.288e-06,-0.00046182000000000005
9.292e-06,-0.003641736
9.296e-06,-0.004813284
9.3e-06,-0.0029722800000000003
9.304000000000001e-06,0.000375
9.308000000000001e-06,0.003387552
9.312e-06,0.004391736
9.316e-06,0.002550732
9.32e-06,-0.000629184
9.324000000000001e-06,-0.0038091000000000006
9.328000000000001e-06,-0.0046459199999999996
9.332e-06,-0.002804916
9.336e-06,0.000542364
9.34e-06,0.003554916
9.344e-06,0.004391736
9.348000000000001e-06,0.002383368
9.352000000000001e-06,-0.000963912
9.356e-06,-0.003976464
9.36e-06,-0.0046459199999999996
9.364e-06,-0.002637552
9.368e-06,0.000709728
9.372000000000001e-06,0.00372228
9.376000000000001e-06,0.0042243720000000005
9.38e-06,0.00204864
9.384e-06,-0.0012986400000000002
9.388e-06,-0.004143828
9.392000000000001e-06,-0.004478556
9.396000000000001e-06,-0.00213546
9.4e-06,0.0012118200000000002
9.404e-06,0.003889644
9.408e-06,0.004057008
9.412e-06,0.0017139120000000002
9.416000000000001e-06,-0.001633368
9.420000000000001e-06,-0.004311192
9.424e-06,-0.004478556
9.428e-06,-0.0018007320000000002
9.432e-06,0.001546548
9.436e-06,0.004057008
9.440000000000001e-06,0.003889644
9.444000000000001e-06,0.0012118200000000002
9.448e-06,-0.00213546
9.452e-06,-0.004478556
9.456e-06,-0.004143828
9.460000000000001e-06,-0.001466004
9.464000000000001e-06,0.0018812759999999999
9.468e-06,0.004057008
9.472e-06,0.00372228
9.476e-06,0.000877092
9.48e-06,-0.0024701880000000003
9.484000000000001e-06,-0.0046459199999999996
9.488000000000001e-06,-0.003976464
9.492e-06,-0.000963912
9.496e-06,0.002383368
9.5e-06,0.0042243720000000005
9.504e-06,0.003387552
9.508000000000001e-06,0.000375
9.512000000000001e-06,-0.0029722800000000003
9.516e-06,-0.0046459199999999996
9.52e-06,-0.003641736
9.524e-06,-0.00046182000000000005
9.528000000000001e-06,0.002718096
9.532000000000001e-06,0.0042243720000000005
9.536e-06,0.003052824
9.54e-06,4.0271999999999997e-05
9.544e-06,-0.003307008
9.548e-06,-0.0046459199999999996
9.552000000000001e-06,-0.003307008
9.556000000000001e-06,4.0271999999999997e-05
9.56e-06,0.003052824
9.564e-06,0.0042243720000000005
9.568e-06,0.002718096
9.572000000000001e-06,-0.00046182000000000005
9.576000000000001e-06,-0.003641736
9.58e-06,-0.0046459199999999996
9.584e-06,-0.002804916
9.588e-06,0.000375
9.592e-06,0.003387552
9.596000000000001e-06,0.0042243720000000005
9.600000000000001e-06,0.002216004
9.604e-06,-0.001131276
9.608e-06,-0.004143828
9.612e-06,-0.004478556
9.616e-06,-0.002302824
9.620000000000001e-06,0.001044456
9.624000000000001e-06,0.00372228
9.628e-06,0.004057008
9.632e-06,0.001546548
9.636e-06,-0.001633368
9.640000000000001e-06,-0.004311192
9.644000000000001e-06,-0.004311192
9.648e-06,-0.001633368
9.652e-06,0.001546548
9.656e-06,0.004057008
9.66e-06,0.00372228
9.664000000000001e-06,0.001044456
9.668000000000001e-06,-0.002302824
9.672e-06,-0.004478556
9.676e-06,-0.003976464
9.68e-06,-0.000963912
9.684e-06,0.002216004
9.688000000000001e-06,0.0042243720000000005
9.692000000000001e-06,0.003387552
9.696e-06,0.000375
9.7e-06,-0.0029722800000000003
9.704e-06,-0.0046459199999999996
9.708000000000001e-06,-0.0034743720000000003
9.712000000000001e-06,-0.000294456
9.716e-06,0.00288546
9.72e-06,0.0042243720000000005
9.724e-06,0.00288546
9.728e-06,-0.00012709199999999998
9.732000000000001e-06,-0.0034743720000000003
9.736000000000001e-06,-0.0046459199999999996
9.74e-06,-0.0029722800000000003
9.744e-06,0.000375
9.748e-06,0.003387552
9.752e-06,0.0042243720000000005
9.756000000000001e-06,0.002383368
9.760000000000001e-06,-0.0007965480000000001
9.764e-06,-0.003976464
9.768e-06,-0.004478556
9.772e-06,-0.002302824
9.776000000000001e-06,0.000877092
9.780000000000001e-06,0.00372228
9.784e-06,0.004057008
9.788e-06,0.001546548
9.792e-06,-0.001633368
9.796e-06,-0.004311192
9.800000000000001e-06,-0.004311192
9.804000000000001e-06,-0.001633368
9.808e-06,0.0017139120000000002
9.812e-06,0.004057008
9.816e-06,0.00372228
9.820000000000001e-06,0.000877092
9.824000000000001e-06,-0.0024701880000000003
9.828000000000001e-06,-0.0046459199999999996
9.832e-06,-0.0038091000000000006
9.836e-06,-0.0007965480000000001
9.84e-06,0.002383368
9.844000000000001e-06,0.0042243720000000005
9.848000000000001e-06,0.003220188
9.852e-06,0.000207636
9.856e-06,-0.003139644
9.86e-06,-0.0046459199999999996
9.864e-06,-0.003307008
9.868000000000001e-06,4.0271999999999997e-05
9.872000000000001e-06,0.003052824
9.876e-06,0.0042243720000000005
9.88e-06,0.002550732
9.884e-06,-0.000629184
9.888000000000001e-06,-0.0038091000000000006
9.892000000000001e-06,-0.0046459199999999996
9.896e-06,-0.002637552
9.9e-06,0.000709728
9.904e-06,0.003554916
9.908e-06,0.004057008
9.912000000000001e-06,0.0017139120000000002
9.916000000000001e-06,-0.001633368
9.92e-06,-0.004311192
9.924e-06,-0.004311192
9.928e-06,-0.0018007320000000002
9.932e-06,0.001546548
9.936000000000001e-06,0.003889644
9.940000000000001e-06,0.003554916
9.944e-06,0.000877092
9.948e-06,-0.0024701880000000003
9.952e-06,-0.004478556
9.956000000000001e-06,-0.0038091000000000006
9.960000000000001e-06,-0.0007965480000000001
9.964e-06,0.002383368
9.968e-06,0.0042243720000000005
9.972e-06,0.003052824
9.976e-06,4.0271999999999997e-05
9.980000000000001e-06,-0.003307008
9.984000000000001e-06,-0.0046459199999999996
9.988e-06,-0.003139644
9.992e-06,0.000207636
9.996e-06,0.003220188
1e-05,0.004057008
1.0004000000000001e-05,0.002383368
1.0008000000000001e-05,-0.000963912
1.0012e-05,-0.003976464
1.0016e-05,-0.004478556
1.002e-05,-0.002302824
1.0024000000000001e-05,0.000877092
1.0028000000000001e-05,0.00372228
1.0032e-05,0.003889644
1.0036e-05,0.0013791839999999999
1.004e-05,-0.0019680960000000003
1.0044e-05,-0.004311192
1.0048000000000001e-05,-0.004143828
1.0052000000000001e-05,-0.0012986400000000002
1.0056e-05,0.0018812759999999999
1.006e-05,0.004057008
1.0064e-05,0.003220188
1.0068e-05,0.000375
1.0072000000000001e-05,-0.0029722800000000003
1.0076000000000001e-05,-0.0046459199999999996
1.008e-05,-0.0034743720000000003
1.0084e-05,-0.000294456
1.0088e-05,0.00288546
1.0092000000000001e-05,0.004057008
1.0096000000000001e-05,0.002550732
1.01e-05,-0.000629184
1.0104e-05,-0.003641736
1.0108e-05,-0.004478556
1.0112e-05,-0.002637552
1.0116000000000001e-05,0.000709728
1.0120000000000001e-05,0.003554916
1.0124e-05,0.003889644
1.0128e-05,0.001546548
1.0132e-05,-0.0018007320000000002
1.0136000000000001e-05,-0.004311192
1.0140000000000001e-05,-0.004143828
1.0144000000000001e-05,-0.001466004
1.0148e-05,0.0017139120000000002
1.0152e-05,0.003889644
1.0156e-05,0.003387552
1.0160000000000001e-05,0.000375
1.0164000000000001e-05,-0.002804916
1.0168e-05,-0.004478556
1.0172e-05,-0.0034743720000000003
1.0176e-05,-0.000294456
1.018e-05,0.002718096
1.0184000000000001e-05,0.004057008
1.0188000000000001e-05,0.002550732
1.0192e-05,-0.00046182000000000005
1.0196e-05,-0.003641736
1.02e-05,-0.004478556
1.0204000000000001e-05,-0.002637552
1.0208000000000001e-05,0.000709728
1.0212e-05,0.003387552
1.0216e-05,0.00372228
1.022e-05,0.001546548
1.0224e-05,-0.0018007320000000002
1.0228000000000001e-05,-0.004311192
1.0232000000000001e-05,-0.004143828
1.0236e-05,-0.001466004
1.024e-05,0.0018812759999999999
1.0244e-05,0.003889644
1.0248e-05,0.003220188
1.0252000000000001e-05,0.000375
1.0256000000000001e-05,-0.002804916
1.026e-05,-0.004478556
1.0264e-05,-0.003307008
1.0268e-05,-0.00012709199999999998
1.0272000000000001e-05,0.00288546
1.0276000000000001e-05,0.003889644
1.028e-05,0.002383368
1.0284e-05,-0.0007965480000000001
1.0288e-05,-0.0038091000000000006
1.0292e-05,-0.004478556
1.0296000000000001e-05,-0.002302824
1.0300000000000001e-05,0.000877092
1.0304e-05,0.003554916
1.0308e-05,0.003554916
1.0312e-05,0.0012118200000000002
1.0316e-05,-0.00213546
1.0320000000000001e-05,-0.004311192
1.0324000000000001e-05,-0.0038091000000000006
1.0328e-05,-0.000963912
1.0332e-05,0.002216004
1.0336e-05,0.003889644
1.0340000000000001e-05,0.00288546
1.0344000000000001e-05,4.0271999999999997e-05
1.0348e-05,-0.003139644
1.0352e-05,-0.004478556
1.0356e-05,-0.0029722800000000003
1.036e-05,0.000207636
1.0364000000000001e-05,0.003052824
1.0368000000000001e-05,0.003889644
1.0372e-05,0.0018812759999999999
1.0376e-05,-0.0012986400000000002
1.038e-05,-0.003976464
1.0384000000000001e-05,-0.004143828
1.0388000000000001e-05,-0.0018007320000000002
1.0392000000000001e-05,0.0013791839999999999
1.0396e-05,0.00372228
1.04e-05,0.003387552
1.0404e-05,0.000542364
1.0408000000000001e-05,-0.002637552
1.0412000000000001e-05,-0.004478556
1.0416e-05,-0.0034743720000000003
1.042e-05,-0.00046182000000000005
1.0424e-05,0.002718096
1.0428e-05,0.003889644
1.0432000000000001e-05,0.002383368
1.0436000000000001e-05,-0.000629184
1.044e-05,-0.003641736
1.0444e-05,-0.004311192
1.0448e-05,-0.002302824
1.0452000000000001e-05,0.000877092
1.0456000000000001e-05,0.003554916
1.0460000000000001e-05,0.003554916
1.0464e-05,0.001044456
1.0468e-05,-0.00213546
1.0472e-05,-0.004311192
1.0476000000000001e-05,-0.0038091000000000006
1.0480000000000001e-05,-0.000963912
1.0484e-05,0.002216004
1.0488e-05,0.003889644
1.0492e-05,0.002718096
1.0496e-05,-0.00012709199999999998
1.0500000000000001e-05,-0.003307008
1.0504000000000001e-05,-0.004478556
1.0508e-05,-0.002804916
1.0512e-05,0.000375
1.0516e-05,0.003220188
1.0520000000000001e-05,0.00372228
1.0524000000000001e-05,0.001546548
1.0528e-05,-0.001633368
1.0532e-05,-0.004143828
1.0536e-05,-0.003976464
1.054e-05,-0.001466004
1.0544000000000001e-05,0.0017139120000000002
1.0548000000000001e-05,0.00372228
1.0552e-05,0.003052824
1.0556e-05,0.000207636
1.056e-05,-0.0029722800000000003
1.0564e-05,-0.004478556
1.0568000000000001e-05,-0.003139644
1.0572000000000001e-05,4.0271999999999997e-05
1.0576e-05,0.00288546
1.058e-05,0.00372228
1.0584e-05,0.0018812759999999999
1.0588000000000001e-05,-0.0012986400000000002
1.0592000000000001e-05,-0.003976464
1.0596e-05,-0.004143828
1.06e-05,-0.001633368
1.0604e-05,0.0013791839999999999
1.0608e-05,0.00372228
1.0612000000000001e-05,0.003220188
1.0616000000000001e-05,0.000375
1.062e-05,-0.002804916
1.0624e-05,-0.004478556
1.0628e-05,-0.003307008
1.0632000000000001e-05,-0.00012709199999999998
1.0636000000000001e-05,0.002718096
1.0640000000000001e-05,0.00372228
1.0644e-05,0.00204864
1.0648e-05,-0.001131276
1.0652e-05,-0.0038091000000000006
1.0656000000000001e-05,-0.004143828
1.0660000000000001e-05,-0.0019680960000000003
1.0664e-05,0.0012118200000000002
1.0668e-05,0.003554916
1.0672e-05,0.003220188
1.0676e-05,0.000542364
1.0680000000000001e-05,-0.002637552
1.0684000000000001e-05,-0.004311192
1.0688e-05,-0.003307008
1.0692e-05,-0.000294456
1.0696e-05,0.002718096
1.0700000000000001e-05,0.00372228
1.0704000000000001e-05,0.00204864
1.0708000000000001e-05,-0.000963912
1.0712e-05,-0.0038091000000000006
1.0716e-05,-0.004143828
1.072e-05,-0.0019680960000000003
1.0724000000000001e-05,0.0012118200000000002
1.0728000000000001e-05,0.003554916
1.0732e-05,0.003220188
1.0736e-05,0.000542364
1.074e-05,-0.002637552
1.0744e-05,-0.004311192
1.0748000000000001e-05,-0.003307008
1.0752000000000001e-05,-0.000294456
1.0756e-05,0.002550732
1.076e-05,0.00372228
1.0764e-05,0.00204864
1.0768000000000001e-05,-0.000963912
1.0772000000000001e-05,-0.0038091000000000006
1.0776e-05,-0.004143828
1.078e-05,-0.0019680960000000003
1.0784e-05,0.0012118200000000002
1.0788e-05,0.003554916
1.0792000000000001e-05,0.003220188
1.0796000000000001e-05,0.000375
1.08e-05,-0.002637552
1.0804e-05,-0.004311192
1.0808e-05,-0.003307008
1.0812e-05,-0.000294456
1.0816000000000001e-05,0.002718096
1.0820000000000001e-05,0.00372228
1.0824e-05,0.0018812759999999999
1.0828e-05,-0.001131276
1.0832e-05,-0.0038091000000000006
1.0836000000000001e-05,-0.004143828
1.0840000000000001e-05,-0.0018007320000000002
1.0844e-05,0.0013791839999999999
1.0848e-05,0.003554916
1.0852e-05,0.003052824
1.0856e-05,0.000375
1.0860000000000001e-05,-0.002804916
1.0864000000000001e-05,-0.004311192
1.0868e-05,-0.003139644
1.0872e-05,4.0271999999999997e-05
1.0876e-05,0.00288546
1.0880000000000001e-05,0.003554916
1.0884000000000001e-05,0.0017139120000000002
1.0888000000000001e-05,-0.001466004
1.0892e-05,-0.003976464
1.0896e-05,-0.003976464
1.09e-05,-0.001466004
1.0904000000000001e-05,0.0017139120000000002
1.0908000000000001e-05,0.003554916
1.0912e-05,0.00288546
1.0916e-05,4.0271999999999997e-05
1.092e-05,-0.003139644
1.0924e-05,-0.004311192
1.0928000000000001e-05,-0.002804916
1.0932000000000001e-05,0.000375
1.0936e-05,0.003052824
1.094e-05,0.003554916
1.0944e-05,0.0013791839999999999
1.0948000000000001e-05,-0.0018007320000000002
1.0952000000000001e-05,-0.004143828
1.0956000000000001e-05,-0.0038091000000000006
1.096e-05,-0.001131276
1.0964e-05,0.0018812759999999999
1.0968e-05,0.00372228
1.0972000000000001e-05,0.002550732
1.0976000000000001e-05,-0.000294456
1.098e-05,-0.003307008
1.0984e-05,-0.004311192
1.0988e-05,-0.0024701880000000003
1.0992e-05,0.000542364
1.0996000000000001e-05,0.003220188
1.1000000000000001e-05,0.003387552
1.1004e-05,0.000877092
1.1008e-05,-0.00213546
1.1012e-05,-0.004311192
1.1016000000000001e-05,-0.003641736
1.1020000000000001e-05,-0.000629184
1.1024000000000002e-05,0.002383368
1.1028e-05,0.00372228
1.1032e-05,0.002216004
1.1036e-05,-0.0007965480000000001
1.1040000000000001e-05,-0.0038091000000000006
1.1044000000000001e-05,-0.004311192
1.1048e-05,-0.0019680960000000003
1.1052e-05,0.0012118200000000002
1.1056e-05,0.003554916
1.106e-05,0.003052824
1.1064000000000001e-05,0.000375
1.1068000000000001e-05,-0.002637552
1.1072e-05,-0.004311192
1.1076e-05,-0.003139644
1.108e-05,-0.00012709199999999998
1.1084000000000001e-05,0.00288546
1.1088000000000001e-05,0.003554916
1.1092e-05,0.0017139120000000002
1.1096e-05,-0.001466004
1.11e-05,-0.003976464
1.1104e-05,-0.003976464
1.1108000000000001e-05,-0.0012986400000000002
1.1112000000000001e-05,0.0017139120000000002
1.1116e-05,0.00372228
1.112e-05,0.002718096
1.1124e-05,-0.00012709199999999998
1.1128000000000001e-05,-0.003307008
1.1132000000000001e-05,-0.004311192
1.1136000000000001e-05,-0.002637552
1.114e-05,0.000542364
1.1144e-05,0.003220188
1.1148e-05,0.003387552
1.1152000000000001e-05,0.001044456
1.1156000000000001e-05,-0.00213546
1.116e-05,-0.004311192
1.1164e-05,-0.0034743720000000003
1.1168e-05,-0.000629184
1.1172e-05,0.002383368
1.1176000000000001e-05,0.003554916
1.1180000000000001e-05,0.00204864
1.1184e-05,-0.000963912
1.1188e-05,-0.0038091000000000006
1.1192e-05,-0.004143828
1.1196000000000001e-05,-0.0018007320000000002
1.1200000000000001e-05,0.0012118200000000002
1.1204000000000001e-05,0.003554916
1.1208e-05,0.00288546
1.1212e-05,0.000207636
1.1216e-05,-0.0029722800000000003
1.1220000000000001e-05,-0.004311192
1.1224000000000001e-05,-0.0029722800000000003
1.1228e-05,0.000207636
1.1232e-05,0.003052824
1.1236e-05,0.003554916
1.124e-05,0.0013791839999999999
1.1244000000000001e-05,-0.0018007320000000002
1.1248000000000001e-05,-0.004143828
1.1252e-05,-0.0038091000000000006
1.1256e-05,-0.000963912
1.126e-05,0.00204864
1.1264000000000001e-05,0.00372228
1.1268000000000001e-05,0.002383368
1.1272000000000002e-05,-0.000629184
1.1276e-05,-0.003641736
1.128e-05,-0.004311192
1.1284e-05,-0.00213546
1.1288000000000001e-05,0.001044456
1.1292000000000001e-05,0.003387552
1.1296e-05,0.003052824
1.13e-05,0.000375
1.1304e-05,-0.002804916
1.1308e-05,-0.004311192
1.1312000000000001e-05,-0.003139644
1.1316000000000001e-05,4.0271999999999997e-05
1.132e-05,0.00288546
1.1324e-05,0.003554916
1.1328e-05,0.0013791839999999999
1.1332000000000001e-05,-0.0018007320000000002
1.1336000000000001e-05,-0.004143828
1.1340000000000002e-05,-0.0038091000000000006
1.1344e-05,-0.001131276
1.1348e-05,0.00204864
1.1352e-05,0.003554916
1.1356000000000001e-05,0.002383368
1.1360000000000001e-05,-0.000629184
1.1364e-05,-0.003641736
1.1368e-05,-0.004311192
1.1372e-05,-0.00213546
1.1376000000000001e-05,0.001044456
1.1380000000000001e-05,0.003387552
1.1384000000000001e-05,0.003052824
1.1388e-05,0.000375
1.1392e-05,-0.002804916
1.1396e-05,-0.004311192
1.1400000000000001e-05,-0.0029722800000000003
1.1404000000000001e-05,0.000207636
1.1408e-05,0.00288546
1.1412e-05,0.003387552
1.1416e-05,0.0012118200000000002
1.142e-05,-0.0019680960000000003
1.1424000000000001e-05,-0.004311192
1.1428000000000001e-05,-0.0038091000000000006
1.1432e-05,-0.000963912
1.1436e-05,0.002216004
1.144e-05,0.00372228
1.1444000000000001e-05,0.002216004
1.1448000000000001e-05,-0.0007965480000000001
1.1452000000000001e-05,-0.0038091000000000006
1.1456e-05,-0.004143828
1.146e-05,-0.0019680960000000003
1.1464e-05,0.0012118200000000002
1.1468000000000001e-05,0.003554916
1.1472000000000001e-05,0.00288546
1.1476e-05,0.000207636
1.148e-05,-0.003139644
1.1484e-05,-0.004478556
1.1488e-05,-0.002804916
1.1492000000000001e-05,0.000375
1.1496000000000001e-05,0.003052824
1.15e-05,0.003387552
1.1504e-05,0.000877092
1.1508e-05,-0.002302824
1.1512000000000001e-05,-0.004311192
1.1516000000000001e-05,-0.0034743720000000003
1.1520000000000002e-05,-0.00046182000000000005
1.1524e-05,0.002550732
1.1528e-05,0.003554916
1.1532e-05,0.0018812759999999999
1.1536000000000001e-05,-0.0012986400000000002
1.1540000000000001e-05,-0.003976464
1.1544e-05,-0.004143828
1.1548e-05,-0.001466004
1.1552e-05,0.0017139120000000002
1.1556e-05,0.003554916
1.1560000000000001e-05,0.002550732
1.1564000000000001e-05,-0.00046182000000000005
1.1568e-05,-0.0034743720000000003
1.1572e-05,-0.004478556
1.1576e-05,-0.002302824
1.1580000000000001e-05,0.000877092
1.1584000000000001e-05,0.003387552
1.1588000000000002e-05,0.003052824
1.1592e-05,0.000375
1.1596e-05,-0.0029722800000000003
1.16e-05,-0.004478556
1.1604000000000001e-05,-0.003139644
1.1608000000000001e-05,4.0271999999999997e-05
1.1612e-05,0.003052824
1.1616e-05,0.003554916
1.162e-05,0.0012118200000000002
1.1624000000000001e-05,-0.0019680960000000003
1.1628000000000001e-05,-0.004311192
1.1632000000000001e-05,-0.003641736
1.1636e-05,-0.000629184
1.164e-05,0.002383368
1.1644e-05,0.00372228
1.1648000000000001e-05,0.00204864
1.1652000000000001e-05,-0.001131276
1.1656000000000002e-05,-0.003976464
1.166e-05,-0.004143828
1.1664e-05,-0.001633368
1.1668e-05,0.001546548
1.1672000000000001e-05,0.003554916
1.1676000000000001e-05,0.002718096
1.168e-05,-0.000294456
1.1684e-05,-0.0034743720000000003
1.1688e-05,-0.004478556
1.1692000000000001e-05,-0.0024701880000000003
1.1696000000000001e-05,0.000709728
1.1700000000000001e-05,0.003387552
1.1704e-05,0.003220188
1.1708e-05,0.000375
1.1712e-05,-0.002804916
1.1716000000000001e-05,-0.004478556
1.1720000000000001e-05,-0.003139644
1.1724e-05,0.000207636
1.1728e-05,0.003052824
1.1732e-05,0.003387552
1.1736e-05,0.0012118200000000002
1.1740000000000001e-05,-0.00213546
1.1744000000000001e-05,-0.004311192
1.1748e-05,-0.003641736
1.1752e-05,-0.000629184
1.1756e-05,0.002550732
1.1760000000000001e-05,0.003554916
1.1764000000000001e-05,0.0018812759999999999
1.1768000000000002e-05,-0.001466004
1.1772e-05,-0.004143828
1.1776e-05,-0.004143828
1.178e-05,-0.001466004
1.1784000000000001e-05,0.0018812759999999999
1.1788000000000001e-05,0.00372228
1.1792e-05,0.002383368
1.1796e-05,-0.000629184
1.18e-05,-0.0038091000000000006
1.1804e-05,-0.004311192
1.1808000000000001e-05,-0.00213546
1.1812000000000001e-05,0.0012118200000000002
1.1816e-05,0.003554916
1.182e-05,0.00288546
1.1824e-05,4.0271999999999997e-05
1.1828000000000001e-05,-0.003307008
1.1832000000000001e-05,-0.004478556
1.1836000000000002e-05,-0.002804916
1.184e-05,0.000542364
1.1844e-05,0.003220188
1.1848e-05,0.003220188
1.1852000000000001e-05,0.000542364
1.1856000000000001e-05,-0.002637552
1.186e-05,-0.004478556
1.1864e-05,-0.003307008
1.1868e-05,4.0271999999999997e-05
1.1872000000000001e-05,0.00288546
1.1876000000000001e-05,0.003554916
1.1880000000000001e-05,0.0012118200000000002
1.1884e-05,-0.0019680960000000003
1.1888e-05,-0.004311192
1.1892e-05,-0.0038091000000000006
1.1896000000000001e-05,-0.000629184
1.1900000000000001e-05,0.002383368
1.1904000000000002e-05,0.00372228
1.1908e-05,0.0018812759999999999
1.1912e-05,-0.001466004
1.1916e-05,-0.004143828
1.1920000000000001e-05,-0.004143828
1.1924000000000001e-05,-0.0012986400000000002
1.1928e-05,0.0018812759999999999
1.1932e-05,0.00372228
1.1936e-05,0.002383368
1.1940000000000001e-05,-0.0007965480000000001
1.1944000000000001e-05,-0.0038091000000000006
1.1948000000000001e-05,-0.004311192
1.1952e-05,-0.0019680960000000003
1.1956e-05,0.0013791839999999999
1.196e-05,0.003554916
1.1964000000000001e-05,0.002718096
1.1968000000000001e-05,-0.000294456
1.1972000000000002e-05,-0.0034743720000000003
1.1976e-05,-0.004478556
1.198e-05,-0.0024701880000000003
1.1984e-05,0.000709728
1.1988000000000001e-05,0.003387552
1.1992000000000001e-05,0.003052824
1.1996e-05,0.000375
1.2e-05,-0.0029722800000000003
1.2004e-05,-0.004478556
1.2008000000000001e-05,-0.0029722800000000003
1.2012000000000001e-05,0.000375
1.2016000000000002e-05,0.003220188
1.202e-05,0.003387552
1.2024e-05,0.000709728
1.2028e-05,-0.002637552
1.2032000000000001e-05,-0.004478556
1.2036000000000001e-05,-0.0034743720000000003
1.204e-05,-0.00012709199999999998
1.2044e-05,0.00288546
1.2048e-05,0.003554916
1.2052e-05,0.0012118200000000002
1.2056000000000001e-05,-0.00213546
1.2060000000000001e-05,-0.004478556
1.2064e-05,-0.0038091000000000006
1.2068e-05,-0.000629184
1.2072e-05,0.002550732
1.2076000000000001e-05,0.003554916
1.2080000000000001e-05,0.0017139120000000002
1.2084000000000002e-05,-0.001633368
1.2088e-05,-0.004311192
1.2092e-05,-0.003976464
1.2096e-05,-0.001131276
1.2100000000000001e-05,0.002216004
1.2104000000000001e-05,0.00372228
1.2108e-05,0.00204864
1.2112e-05,-0.001131276
1.2116e-05,-0.004143828
1.2120000000000001e-05,-0.004311192
1.2124000000000001e-05,-0.001633368
1.2128000000000001e-05,0.0017139120000000002
1.2132e-05,0.00372228
1.2136e-05,0.002383368
1.214e-05,-0.000629184
1.2144000000000001e-05,-0.0038091000000000006
1.2148000000000001e-05,-0.004478556
1.2152000000000002e-05,-0.0019680960000000003
1.2156e-05,0.0013791839999999999
1.216e-05,0.003554916
1.2164e-05,0.002718096
1.2168000000000001e-05,-0.000294456
1.2172000000000001e-05,-0.003641736
1.2176e-05,-0.004478556
1.218e-05,-0.0024701880000000003
1.2184e-05,0.000877092
1.2188000000000001e-05,0.003387552
1.2192000000000001e-05,0.003052824
1.2196000000000001e-05,0.000207636
1.22e-05,-0.003307008
1.2204e-05,-0.0046459199999999996
1.2208e-05,-0.002804916
1.2212000000000001e-05,0.000542364
1.2216000000000001e-05,0.003387552
1.2220000000000002e-05,0.003220188
1.2224e-05,0.000375
1.2228e-05,-0.0029722800000000003
1.2232e-05,-0.0046459199999999996
1.2236000000000001e-05,-0.003139644
1.2240000000000001e-05,0.000375
1.2244e-05,0.003220188
1.2248e-05,0.003387552
1.2252e-05,0.000709728
1.2256000000000001e-05,-0.002637552
1.2260000000000001e-05,-0.0046459199999999996
1.2264000000000002e-05,-0.003307008
1.2268e-05,4.0271999999999997e-05
1.2272e-05,0.003052824
1.2276e-05,0.003387552
1.2280000000000001e-05,0.001044456
1.2284000000000001e-05,-0.002302824
1.2288000000000002e-05,-0.004478556
1.2292e-05,-0.0034743720000000003
1.2296e-05,-0.000294456
1.23e-05,0.002718096
1.2304000000000001e-05,0.003554916
1.2308000000000001e-05,0.0013791839999999999
1.2312e-05,-0.00213546
1.2316e-05,-0.004478556
1.232e-05,-0.0038091000000000006
1.2324000000000001e-05,-0.000629184
1.2328000000000001e-05,0.002550732
1.2332000000000002e-05,0.003554916
1.2336e-05,0.001546548
1.234e-05,-0.0018007320000000002
1.2344e-05,-0.004478556
1.2348000000000001e-05,-0.003976464
1.2352000000000001e-05,-0.0007965480000000001
1.2356e-05,0.002383368
1.236e-05,0.003554916
1.2364e-05,0.0017139120000000002
1.2368e-05,-0.001633368
1.2372000000000001e-05,-0.004311192
1.2376000000000001e-05,-0.004143828
1.238e-05,-0.001131276
1.2384e-05,0.002216004
1.2388e-05,0.00372228
1.2392000000000001e-05,0.0018812759999999999
1.2396000000000001e-05,-0.001466004
1.2400000000000002e-05,-0.004311192
1.2404e-05,-0.004143828
1.2408e-05,-0.0012986400000000002
1.2412e-05,0.00204864
1.2416000000000001e-05,0.00372228
1.2420000000000001e-05,0.00204864
1.2424e-05,-0.001131276
1.2428e-05,-0.004143828
1.2432e-05,-0.004311192
1.2436000000000001e-05,-0.001466004
1.2440000000000001e-05,0.0018812759999999999
1.2444000000000001e-05,0.00372228
1.2448e-05,0.002216004
1.2452e-05,-0.000963912
1.2456e-05,-0.004143828
1.2460000000000001e-05,-0.004311192
1.2464000000000001e-05,-0.001633368
1.2468000000000002e-05,0.0017139120000000002
1.2472e-05,0.003554916
1.2476e-05,0.002383368
1.248e-05,-0.0007965480000000001
1.2484000000000001e-05,-0.003976464
1.2488000000000001e-05,-0.004311192
1.2492e-05,-0.0018007320000000002
1.2496e-05,0.001546548
1.25e-05,0.003554916
1.2504000000000001e-05,0.002383368
1.2508000000000001e-05,-0.0007965480000000001
1.2512000000000002e-05,-0.003976464
1.2516e-05,-0.004478556
1.252e-05,-0.0018007320000000002
1.2524e-05,0.001546548
1.2528000000000001e-05,0.003554916
1.2532000000000001e-05,0.002550732
1.2536000000000002e-05,-0.000629184
1.254e-05,-0.0038091000000000006
1.2544e-05,-0.004478556
1.2548e-05,-0.0019680960000000003
1.2552000000000001e-05,0.0013791839999999999
1.2556000000000001e-05,0.003554916
1.256e-05,0.002550732
1.2564e-05,-0.000629184
1.2568e-05,-0.0038091000000000006
1.2572000000000001e-05,-0.004478556
1.2576000000000001e-05,-0.0019680960000000003
1.2580000000000002e-05,0.0013791839999999999
1.2584e-05,0.003554916
1.2588e-05,0.002550732
1.2592e-05,-0.000629184
1.2596000000000001e-05,-0.0038091000000000006
1.2600000000000001e-05,-0.004478556
1.2604e-05,-0.00213546
1.2608e-05,0.0013791839999999999
1.2612e-05,0.003554916
1.2616e-05,0.002550732
1.2620000000000001e-05,-0.000629184
1.2624000000000001e-05,-0.0038091000000000006
1.2628e-05,-0.004478556
1.2632e-05,-0.00213546
1.2636e-05,0.0013791839999999999
1.2640000000000001e-05,0.003554916
1.2644000000000001e-05,0.002550732
1.2648000000000002e-05,-0.000629184
1.2652e-05,-0.0038091000000000006
1.2656e-05,-0.004478556
1.266e-05,-0.00213546
1.2664000000000001e-05,0.0013791839999999999
1.2668000000000001e-05,0.003554916
1.2672e-05,0.002550732
1.2676e-05,-0.000629184
1.268e-05,-0.0038091000000000006
1.2684000000000001e-05,-0.004478556
1.2688000000000001e-05,-0.0019680960000000003
1.2692000000000001e-05,0.0013791839999999999
1.2696e-05,0.003554916
1.27e-05,0.002550732
1.2704e-05,-0.000629184
1.2708000000000001e-05,-0.003976464
1.2712000000000001e-05,-0.004478556
1.2716000000000002e-05,-0.0019680960000000003
1.272e-05,0.001546548
1.2724e-05,0.003554916
1.2728e-05,0.002550732
1.2732000000000001e-05,-0.0007965480000000001
1.2736000000000001e-05,-0.003976464
1.274e-05,-0.004478556
1.2744e-05,-0.0019680960000000003
1.2748e-05,0.001546548
1.2752000000000001e-05,0.003554916
1.2756000000000001e-05,0.002383368
1.2760000000000001e-05,-0.0007965480000000001
1.2764e-05,-0.003976464
1.2768e-05,-0.004478556
1.2772e-05,-0.0018007320000000002
1.2776000000000001e-05,0.0017139120000000002
1.2780000000000001e-05,0.00372228
1.2784000000000002e-05,0.002383368
1.2788e-05,-0.000963912
1.2792e-05,-0.004143828
1.2796e-05,-0.004478556
1.2800000000000001e-05,-0.001633368
1.2804000000000001e-05,0.0017139120000000002
1.2808e-05,0.00372228
1.2812e-05,0.002216004
1.2816e-05,-0.001131276
1.2820000000000001e-05,-0.004143828
1.2824000000000001e-05,-0.004311192
1.2828000000000002e-05,-0.001466004
1.2832e-05,0.0018812759999999999
1.2836e-05,0.00372228
1.284e-05,0.00204864
1.2844000000000001e-05,-0.0012986400000000002
1.2848000000000001e-05,-0.004311192
1.2852000000000002e-05,-0.004143828
1.2856e-05,-0.0012986400000000002
1.286e-05,0.00204864
1.2864e-05,0.00372228
1.2868000000000001e-05,0.0018812759999999999
1.2872000000000001e-05,-0.001466004
1.2876e-05,-0.004311192
1.288e-05,-0.004143828
1.2884e-05,-0.000963912
1.2888000000000001e-05,0.002216004
1.2892000000000001e-05,0.00372228
1.2896000000000002e-05,0.0017139120000000002
1.29e-05,-0.001633368
1.2904e-05,-0.004478556
1.2908e-05,-0.003976464
1.2912000000000001e-05,-0.0007965480000000001
1.2916000000000001e-05,0.002550732
1.292e-05,0.003554916
1.2924e-05,0.001546548
1.2928e-05,-0.0019680960000000003
1.2932000000000001e-05,-0.004478556
1.2936000000000001e-05,-0.0038091000000000006
1.2940000000000001e-05,-0.000629184
1.2944e-05,0.002718096
1.2948e-05,0.003554916
1.2952e-05,0.0012118200000000002
1.2956000000000001e-05,-0.002302824
1.2960000000000001e-05,-0.0046459199999999996
1.2964000000000002e-05,-0.003641736
1.2968e-05,-0.000294456
1.2972e-05,0.00288546
1.2976e-05,0.003387552
1.2980000000000001e-05,0.001044456
1.2984000000000001e-05,-0.0024701880000000003
1.2988e-05,-0.0046459199999999996
1.2992e-05,-0.0034743720000000003
1.2996e-05,4.0271999999999997e-05
1.3000000000000001e-05,0.003052824
1.3004000000000001e-05,0.003387552
1.3008000000000001e-05,0.000709728
1.3012e-05,-0.002804916
1.3016e-05,-0.0046459199999999996
1.302e-05,-0.003139644
1.3024000000000001e-05,0.000375
1.3028000000000001e-05,0.003220188
1.3032000000000002e-05,0.003220188
1.3036e-05,0.000375
1.304e-05,-0.003139644
1.3044e-05,-0.0046459199999999996
1.3048000000000001e-05,-0.0029722800000000003
1.3052000000000001e-05,0.000542364
1.3056e-05,0.003387552
1.306e-05,0.003052824
1.3064e-05,4.0271999999999997e-05
1.3068000000000001e-05,-0.0034743720000000003
1.3072000000000001e-05,-0.0046459199999999996
1.3076000000000002e-05,-0.002637552
1.308e-05,0.000877092
1.3084e-05,0.003387552
1.3088e-05,0.002718096
1.3092000000000001e-05,-0.000294456
1.3096000000000001e-05,-0.003641736
1.3100000000000002e-05,-0.004478556
1.3104e-05,-0.00213546
1.3108e-05,0.0013791839999999999
1.3112e-05,0.003554916
1.3116000000000001e-05,0.002550732
1.3120000000000001e-05,-0.000629184
1.3124e-05,-0.003976464
1.3128e-05,-0.004311192
1.3132e-05,-0.001633368
1.3136000000000001e-05,0.0017139120000000002
1.3140000000000001e-05,0.003554916
1.3144000000000002e-05,0.002216004
1.3148e-05,-0.001131276
1.3152e-05,-0.004143828
1.3156e-05,-0.004143828
1.3160000000000001e-05,-0.0012986400000000002
1.3164000000000001e-05,0.00204864
1.3168000000000002e-05,0.003554916
1.3172e-05,0.0018812759999999999
1.3176e-05,-0.001633368
1.3180000000000001e-05,-0.004478556
1.3184000000000001e-05,-0.003976464
1.3188000000000001e-05,-0.0007965480000000001
1.3192e-05,0.002550732
1.3196e-05,0.003554916
1.32e-05,0.0013791839999999999
1.3204000000000001e-05,-0.00213546
1.3208000000000001e-05,-0.004478556
1.3212000000000002e-05,-0.003641736
1.3216e-05,-0.000294456
1.322e-05,0.00288546
1.3224e-05,0.003387552
1.3228000000000001e-05,0.000877092
1.3232000000000001e-05,-0.002637552
1.3236e-05,-0.0046459199999999996
1.324e-05,-0.003307008
1.3244e-05,0.000207636
1.3248000000000001e-05,0.003052824
1.3252000000000001e-05,0.003220188
1.3256000000000001e-05,0.000375
1.326e-05,-0.003139644
1.3264e-05,-0.0046459199999999996
1.3268e-05,-0.002804916
1.3272000000000001e-05,0.000709728
1.3276000000000001e-05,0.003387552
1.3280000000000002e-05,0.00288546
1.3284e-05,-0.00012709199999999998
1.3288e-05,-0.0034743720000000003
1.3292e-05,-0.0046459199999999996
1.3296000000000001e-05,-0.002302824
1.3300000000000001e-05,0.0012118200000000002
1.3304e-05,0.003554916
1.3308e-05,0.002550732
1.3312e-05,-0.000629184
1.3316000000000001e-05,-0.003976464
1.3320000000000001e-05,-0.004311192
1.3324000000000002e-05,-0.0018007320000000002
1.3328e-05,0.0017139120000000002
1.3332e-05,0.003554916
1.3336e-05,0.00204864
1.3340000000000001e-05,-0.0012986400000000002
1.3344000000000001e-05,-0.004143828
1.3348000000000002e-05,-0.004143828
1.3352e-05,-0.001131276
1.3356e-05,0.002216004
1.336e-05,0.003554916
1.3364000000000001e-05,0.001546548
1.3368000000000001e-05,-0.0019680960000000003
1.3372e-05,-0.004478556
1.3376e-05,-0.0038091000000000006
1.338e-05,-0.00046182000000000005
1.3384000000000001e-05,0.002718096
1.3388000000000001e-05,0.003387552
1.3392000000000002e-05,0.001044456
1.3396e-05,-0.0024701880000000003
1.34e-05,-0.004478556
1.3404e-05,-0.003307008
1.3408000000000001e-05,0.000207636
1.3412000000000001e-05,0.003052824
1.3416000000000002e-05,0.003220188
1.342e-05,0.000375
1.3424e-05,-0.003139644
1.3428000000000001e-05,-0.0046459199999999996
1.3432000000000001e-05,-0.002804916
1.3436000000000001e-05,0.000709728
1.344e-05,0.003220188
1.3444e-05,0.002718096
1.3448e-05,-0.000294456
1.3452000000000001e-05,-0.003641736
1.3456000000000001e-05,-0.004478556
1.3460000000000002e-05,-0.0019680960000000003
1.3464e-05,0.0013791839999999999
1.3468e-05,0.003554916
1.3472e-05,0.002216004
1.3476000000000001e-05,-0.000963912
1.3480000000000001e-05,-0.003976464
1.3484000000000002e-05,-0.004143828
1.3488e-05,-0.0012986400000000002
1.3492e-05,0.00204864
1.3496000000000001e-05,0.003387552
1.3500000000000001e-05,0.0017139120000000002
1.3504000000000001e-05,-0.0018007320000000002
1.3508e-05,-0.004311192
1.3512e-05,-0.0038091000000000006
1.3516e-05,-0.00046182000000000005
1.3520000000000001e-05,0.002550732
1.3524000000000001e-05,0.003387552
1.3528000000000002e-05,0.000877092
1.3532e-05,-0.0024701880000000003
1.3536e-05,-0.004478556
1.354e-05,-0.003139644
1.3544000000000001e-05,0.000207636
1.3548000000000001e-05,0.003052824
1.3552e-05,0.003052824
1.3556e-05,0.000375
1.356e-05,-0.003139644
1.3564000000000001e-05,-0.004478556
1.3568000000000001e-05,-0.002637552
1.3572000000000002e-05,0.000877092
1.3576e-05,0.003387552
1.358e-05,0.002550732
1.3584e-05,-0.00046182000000000005
1.3588000000000001e-05,-0.0038091000000000006
1.3592000000000001e-05,-0.004311192
1.3596000000000002e-05,-0.0018007320000000002
1.36e-05,0.001546548
1.3604e-05,0.003387552
1.3608e-05,0.00204864
1.3612000000000001e-05,-0.0012986400000000002
1.3616000000000001e-05,-0.004143828
1.362e-05,-0.003976464
1.3624e-05,-0.000963912
1.3628e-05,0.002216004
1.3632000000000001e-05,0.003387552
1.3636000000000001e-05,0.0012118200000000002
1.3640000000000002e-05,-0.00213546
1.3644e-05,-0.004478556
1.3648e-05,-0.0034743720000000003
1.3652e-05,4.0271999999999997e-05
1.3656000000000001e-05,0.00288546
1.3660000000000001e-05,0.003220188
1.3664000000000002e-05,0.000375
1.3668e-05,-0.0029722800000000003
1.3672e-05,-0.004478556
1.3676000000000001e-05,-0.002804916
1.3680000000000001e-05,0.000709728
1.3684000000000001e-05,0.003220188
1.3688e-05,0.002718096
1.3692e-05,-0.000294456
1.3696e-05,-0.003641736
1.3700000000000001e-05,-0.004311192
1.3704000000000001e-05,-0.0019680960000000003
1.3708000000000002e-05,0.001546548
1.3712e-05,0.003387552
1.3716e-05,0.00204864
1.372e-05,-0.0012986400000000002
1.3724000000000001e-05,-0.004143828
1.3728000000000001e-05,-0.003976464
1.3732000000000002e-05,-0.000963912
1.3736e-05,0.002216004
1.374e-05,0.003387552
1.3744000000000001e-05,0.0012118200000000002
1.3748000000000001e-05,-0.00213546
1.3752000000000001e-05,-0.004478556
1.3756e-05,-0.003307008
1.376e-05,4.0271999999999997e-05
1.3764e-05,0.00288546
1.3768000000000001e-05,0.003052824
1.3772000000000001e-05,0.000375
1.3776000000000002e-05,-0.0029722800000000003
1.378e-05,-0.004478556
1.3784e-05,-0.002637552
1.3788e-05,0.000709728
1.3792000000000001e-05,0.003220188
1.3796000000000001e-05,0.002550732
1.3800000000000002e-05,-0.00046182000000000005
1.3804e-05,-0.0038091000000000006
1.3808e-05,-0.004311192
1.3812000000000001e-05,-0.001633368
1.3816000000000001e-05,0.0017139120000000002
1.3820000000000002e-05,0.003387552
1.3824e-05,0.0018812759999999999
1.3828e-05,-0.001466004
1.3832e-05,-0.004143828
1.3836000000000001e-05,-0.0038091000000000006
1.3840000000000001e-05,-0.000629184
1.3844000000000002e-05,0.002550732
1.3848e-05,0.003220188
1.3852e-05,0.000877092
1.3856e-05,-0.0024701880000000003
1.3860000000000001e-05,-0.004478556
1.3864000000000001e-05,-0.0029722800000000003
1.3868e-05,0.000375
1.3872e-05,0.003052824
1.3876e-05,0.00288546
1.3880000000000001e-05,4.0271999999999997e-05
1.3884000000000001e-05,-0.003307008
1.3888000000000002e-05,-0.004311192
1.3892e-05,-0.00213546
1.3896e-05,0.0012118200000000002
1.39e-05,0.003387552
1.3904000000000001e-05,0.002216004
1.3908000000000001e-05,-0.001131276
1.3912000000000002e-05,-0.003976464
1.3916e-05,-0.003976464
1.392e-05,-0.000963912
1.3924000000000001e-05,0.002216004
1.3928000000000001e-05,0.003387552
1.3932000000000001e-05,0.0012118200000000002
1.3936e-05,-0.00213546
1.394e-05,-0.004311192
1.3944e-05,-0.003307008
1.3948000000000001e-05,4.0271999999999997e-05
1.3952000000000001e-05,0.00288546
1.3956000000000002e-05,0.003052824
1.396e-05,0.000375
1.3964e-05,-0.003139644
1.3968e-05,-0.004311192
1.3972000000000001e-05,-0.002302824
1.3976000000000001e-05,0.001044456
1.3980000000000002e-05,0.003387552
1.3984e-05,0.002383368
1.3988e-05,-0.0007965480000000001
1.3992000000000001e-05,-0.0038091000000000006
1.3996000000000001e-05,-0.004143828
1.4000000000000001e-05,-0.0012986400000000002
1.4004e-05,0.00204864
1.4008e-05,0.003387552
1.4012e-05,0.0013791839999999999
1.4016000000000001e-05,-0.0019680960000000003
1.4020000000000001e-05,-0.004311192
1.4024000000000002e-05,-0.0034743720000000003
1.4028e-05,-0.00012709199999999998
1.4032e-05,0.002718096
1.4036e-05,0.003052824
1.4040000000000001e-05,0.000375
1.4044000000000001e-05,-0.0029722800000000003
1.4048000000000002e-05,-0.004478556
1.4052e-05,-0.0024701880000000003
1.4056e-05,0.000877092
1.4060000000000001e-05,0.003220188
1.4064000000000001e-05,0.002383368
1.4068000000000002e-05,-0.0007965480000000001
1.4072e-05,-0.0038091000000000006
1.4076e-05,-0.004143828
1.408e-05,-0.0012986400000000002
1.4084000000000001e-05,0.0018812759999999999
1.4088000000000001e-05,0.003387552
1.4092000000000002e-05,0.0013791839999999999
1.4096e-05,-0.0019680960000000003
1.41e-05,-0.004311192
1.4104e-05,-0.0034743720000000003
1.4108000000000001e-05,-0.00012709199999999998
1.4112000000000001e-05,0.002718096
1.4116e-05,0.003052824
1.412e-05,0.000375
1.4124e-05,-0.0029722800000000003
1.4128000000000001e-05,-0.004311192
1.4132000000000001e-05,-0.0024701880000000003
1.4136000000000002e-05,0.000877092
1.414e-05,0.003220188
1.4144e-05,0.002383368
1.4148e-05,-0.0007965480000000001
1.4152000000000001e-05,-0.0038091000000000006
1.4156000000000001e-05,-0.003976464
1.4160000000000002e-05,-0.001131276
1.4164e-05,0.00204864
1.4168e-05,0.003387552
1.4172000000000001e-05,0.0012118200000000002
1.4176000000000001e-05,-0.00213546
1.4180000000000001e-05,-0.004311192
1.4184e-05,-0.003307008
1.4188e-05,4.0271999999999997e-05
1.4192e-05,0.00288546
1.4196000000000001e-05,0.00288546
1.4200000000000001e-05,0.000207636
1.4204000000000002e-05,-0.003139644
1.4208e-05,-0.004311192
1.4212e-05,-0.00213546
1.4216e-05,0.0012118200000000002
1.4220000000000001e-05,0.003220188
1.4224000000000001e-05,0.00204864
1.4228000000000002e-05,-0.001131276
1.4232e-05,-0.003976464
1.4236e-05,-0.0038091000000000006
1.4240000000000001e-05,-0.0007965480000000001
1.4244000000000001e-05,0.002216004
1.4248000000000001e-05,0.003220188
1.4252e-05,0.000877092
1.4256e-05,-0.0024701880000000003
1.426e-05,-0.004311192
1.4264000000000001e-05,-0.0029722800000000003
1.4268000000000001e-05,0.000375
1.4272000000000002e-05,0.003052824
1.4276e-05,0.002718096
1.428e-05,-0.000294456
1.4284e-05,-0.0034743720000000003
1.4288000000000001e-05,-0.004143828
1.4292000000000001e-05,-0.001633368
1.4296000000000002e-05,0.001546548
1.43e-05,0.003220188
1.4304e-05,0.0017139120000000002
1.4308000000000001e-05,-0.001633368
1.4312000000000001e-05,-0.004143828
1.4316000000000002e-05,-0.0034743720000000003
1.432e-05,-0.000294456
1.4324e-05,0.002550732
1.4328e-05,0.003052824
1.4332000000000001e-05,0.000375
1.4336000000000001e-05,-0.002804916
1.4340000000000002e-05,-0.004311192
1.4344e-05,-0.0024701880000000003
1.4348e-05,0.000877092
1.4352e-05,0.003220188
1.4356000000000001e-05,0.002216004
1.4360000000000001e-05,-0.0007965480000000001
1.4364000000000002e-05,-0.0038091000000000006
1.4368e-05,-0.003976464
1.4372e-05,-0.001131276
1.4376000000000001e-05,0.00204864
1.4380000000000001e-05,0.003220188
1.4384000000000002e-05,0.001044456
1.4388e-05,-0.002302824
1.4392e-05,-0.004311192
1.4396e-05,-0.0029722800000000003
1.4400000000000001e-05,0.000375
1.4404000000000001e-05,0.00288546
1.4408000000000002e-05,0.002718096
1.4412e-05,-0.00012709199999999998
1.4416e-05,-0.003307008
1.4420000000000001e-05,-0.004143828
1.4424000000000001e-05,-0.0018007320000000002
1.4428000000000001e-05,0.001546548
1.4432e-05,0.003220188
1.4436e-05,0.0017139120000000002
1.444e-05,-0.001633368
1.4444000000000001e-05,-0.004143828
1.4448000000000001e-05,-0.0034743720000000003
1.4452000000000002e-05,-0.000294456
1.4456e-05,0.002550732
1.446e-05,0.00288546
1.4464e-05,0.000375
1.4468000000000001e-05,-0.0029722800000000003
1.4472000000000001e-05,-0.004143828
1.4476000000000002e-05,-0.002302824
1.448e-05,0.001044456
1.4484e-05,0.003220188
1.4488000000000001e-05,0.00204864
1.4492000000000001e-05,-0.000963912
1.4496000000000001e-05,-0.0038091000000000006
1.45e-05,-0.003641736
1.4504e-05,-0.0007965480000000001
1.4508e-05,0.002216004
1.4512000000000001e-05,0.003052824
1.4516000000000001e-05,0.000709728
1.4520000000000002e-05,-0.0024701880000000003
1.4524e-05,-0.004143828
1.4528e-05,-0.002637552
1.4532e-05,0.000542364
1.4536000000000001e-05,0.003052824
1.4540000000000001e-05,0.002383368
1.4544000000000002e-05,-0.00046182000000000005
1.4548e-05,-0.003641736
1.4552e-05,-0.0038091000000000006
1.4556000000000001e-05,-0.001131276
1.4560000000000001e-05,0.0018812759999999999
1.4564000000000002e-05,0.003220188
1.4568e-05,0.0012118200000000002
1.4572e-05,-0.00213546
1.4576e-05,-0.004143828
1.4580000000000001e-05,-0.0029722800000000003
1.4584000000000001e-05,0.000375
1.4588000000000002e-05,0.00288546
1.4592e-05,0.002718096
1.4596e-05,-0.00012709199999999998
1.46e-05,-0.003307008
1.4604000000000001e-05,-0.003976464
1.4608000000000001e-05,-0.001633368
1.4612000000000002e-05,0.001546548
1.4616e-05,0.003220188
1.462e-05,0.001546548
1.4624000000000001e-05,-0.001633368
1.4628000000000001e-05,-0.003976464
1.4632000000000002e-05,-0.003307008
1.4636e-05,4.0271999999999997e-05
1.464e-05,0.002718096
1.4644e-05,0.002718096
1.4648000000000001e-05,0.000207636
1.4652000000000001e-05,-0.003139644
1.4656000000000002e-05,-0.004143828
1.466e-05,-0.0019680960000000003
1.4664e-05,0.0013791839999999999
1.4668000000000001e-05,0.003052824
1.4672000000000001e-05,0.0017139120000000002
1.4676000000000001e-05,-0.001466004
1.4680000000000002e-05,-0.003976464
1.4684e-05,-0.003307008
1.4688e-05,-0.000294456
1.4692000000000001e-05,0.002550732
1.4696000000000001e-05,0.00288546
1.4700000000000002e-05,0.000375
1.4704e-05,-0.002804916
1.4708e-05,-0.004143828
1.4712e-05,-0.00213546
1.4716000000000001e-05,0.001044456
1.4720000000000001e-05,0.003052824
1.4724000000000002e-05,0.0018812759999999999
1.4728e-05,-0.0012986400000000002
1.4732e-05,-0.0038091000000000006
1.4736000000000001e-05,-0.0034743720000000003
1.4740000000000001e-05,-0.00046182000000000005
1.4744000000000001e-05,0.002383368
1.4748e-05,0.00288546
1.4752e-05,0.000375
1.4756e-05,-0.002804916
1.4760000000000001e-05,-0.004143828
1.4764000000000001e-05,-0.00213546
1.4768000000000002e-05,0.000877092
1.4772e-05,0.003052824
1.4776e-05,0.00204864
1.478e-05,-0.001131276
1.4784000000000001e-05,-0.0038091000000000006
1.4788000000000001e-05,-0.0034743720000000003
1.4792000000000002e-05,-0.000629184
1.4796e-05,0.002383368
1.48e-05,0.00288546
1.4804000000000001e-05,0.000542364
1.4808000000000001e-05,-0.002637552
1.4812000000000002e-05,-0.004143828
1.4816e-05,-0.002302824
1.482e-05,0.000877092
1.4824e-05,0.003052824
1.4828000000000001e-05,0.00204864
1.4832000000000001e-05,-0.000963912
1.4836000000000002e-05,-0.003641736
1.484e-05,-0.0034743720000000003
1.4844e-05,-0.000629184
1.4848e-05,0.002216004
1.4852000000000001e-05,0.00288546
1.4856000000000001e-05,0.000542364
1.4860000000000002e-05,-0.002637552
1.4864e-05,-0.003976464
1.4868e-05,-0.002302824
1.4872000000000001e-05,0.000877092
1.4876000000000001e-05,0.003052824
1.4880000000000002e-05,0.00204864
1.4884e-05,-0.000963912
1.4888e-05,-0.003641736
1.4892e-05,-0.0034743720000000003
1.4896000000000001e-05,-0.00046182000000000005
1.4900000000000001e-05,0.002216004
1.4904000000000002e-05,0.00288546
1.4908e-05,0.000375
1.4912e-05,-0.002637552
1.4916e-05,-0.003976464
1.4920000000000001e-05,-0.00213546
1.4924000000000001e-05,0.000877092
1.4928000000000002e-05,0.003052824
1.4932e-05,0.0018812759999999999
1.4936e-05,-0.001131276
1.4940000000000001e-05,-0.003641736
1.4944000000000001e-05,-0.003307008
1.4948000000000002e-05,-0.00046182000000000005
1.4952e-05,0.002383368
1.4956e-05,0.002718096
1.496e-05,0.000375
1.4964000000000001e-05,-0.002804916
1.4968000000000001e-05,-0.003976464
1.4972000000000002e-05,-0.0019680960000000003
1.4976e-05,0.001044456
1.498e-05,0.003052824
1.4984000000000001e-05,0.0017139120000000002
1.4988000000000001e-05,-0.0012986400000000002
1.4992000000000001e-05,-0.003641736
1.4996000000000002e-05,-0.003139644
1.5e-05,-0.000294456
1.5004e-05,0.002383368
1.5008000000000001e-05,0.002718096
1.5012000000000001e-05,0.000207636
1.5016000000000002e-05,-0.002804916
1.502e-05,-0.0038091000000000006
1.5024e-05,-0.0018007320000000002
1.5028e-05,0.0012118200000000002
1.5032000000000001e-05,0.003052824
1.5036000000000001e-05,0.001546548
1.5040000000000002e-05,-0.001466004
1.5044e-05,-0.0038091000000000006
1.5048e-05,-0.0029722800000000003
1.5052000000000001e-05,4.0271999999999997e-05
1.5056000000000001e-05,0.002550732
1.5060000000000001e-05,0.002550732
1.5064e-05,4.0271999999999997e-05
1.5068e-05,-0.003139644
1.5072e-05,-0.0038091000000000006
1.5076000000000001e-05,-0.001466004
1.5080000000000001e-05,0.001546548
1.5084000000000002e-05,0.00288546
1.5088e-05,0.0012118200000000002
1.5092e-05,-0.0018007320000000002
1.5096e-05,-0.0038091000000000006
1.5100000000000001e-05,-0.002804916
1.5104000000000001e-05,0.000375
1.5108000000000002e-05,0.002718096
1.5112e-05,0.002383368
1.5116e-05,-0.000294456
1.5120000000000001e-05,-0.003307008
1.5124000000000001e-05,-0.003641736
1.5128000000000002e-05,-0.001131276
1.5132e-05,0.0017139120000000002
1.5136e-05,0.00288546
1.514e-05,0.000877092
1.5144000000000001e-05,-0.00213546
1.5148000000000001e-05,-0.0038091000000000006
1.5152000000000002e-05,-0.0024701880000000003
1.5156e-05,0.000542364
1.516e-05,0.002718096
1.5164e-05,0.00204864
1.5168000000000001e-05,-0.0007965480000000001
1.5172000000000001e-05,-0.0034743720000000003
1.5176000000000002e-05,-0.003307008
1.518e-05,-0.000629184
1.5184e-05,0.00204864
1.5188000000000001e-05,0.002718096
1.5192000000000001e-05,0.000542364
1.5196000000000002e-05,-0.0024701880000000003
1.52e-05,-0.0038091000000000006
1.5204e-05,-0.0019680960000000003
1.5208e-05,0.000877092
1.5212000000000001e-05,0.00288546
1.5216000000000001e-05,0.0017139120000000002
1.5220000000000002e-05,-0.001131276
1.5224e-05,-0.003641736
1.5228e-05,-0.003139644
1.5232000000000001e-05,-0.000294456
1.5236000000000001e-05,0.002383368
1.5240000000000001e-05,0.002550732
1.5244000000000002e-05,0.000207636
1.5248e-05,-0.002804916
1.5252e-05,-0.003641736
1.5256000000000001e-05,-0.001466004
1.526e-05,0.0013791839999999999
1.5264e-05,0.00288546
1.5268e-05,0.0012118200000000002
1.5272000000000002e-05,-0.0018007320000000002
1.5276e-05,-0.003641736
1.528e-05,-0.002637552
1.5284e-05,0.000375
1.5288e-05,0.002550732
1.5292000000000002e-05,0.002216004
1.5296e-05,-0.00046182000000000005
1.5300000000000003e-05,-0.003139644
1.5304e-05,-0.0034743720000000003
1.5308e-05,-0.000963912
1.5312000000000002e-05,0.0018812759999999999
1.5316e-05,0.002718096
1.5320000000000002e-05,0.000709728
1.5324e-05,-0.002302824
1.5328e-05,-0.003641736
1.5332e-05,-0.00213546
1.5336e-05,0.000877092
1.5340000000000002e-05,0.002718096
1.5344e-05,0.0017139120000000002
1.5348e-05,-0.000963912
1.5352e-05,-0.0034743720000000003
1.5356e-05,-0.003139644
1.5360000000000002e-05,-0.000294456
1.5364e-05,0.002216004
1.5368000000000003e-05,0.002550732
1.5372e-05,0.000207636
1.5376e-05,-0.002804916
1.5380000000000002e-05,-0.003641736
1.5384e-05,-0.001466004
1.5388000000000002e-05,0.0013791839999999999
1.5392e-05,0.00288546
1.5396e-05,0.0012118200000000002
1.54e-05,-0.0018007320000000002
1.5404e-05,-0.003641736
1.5408000000000002e-05,-0.002637552
1.5412e-05,0.000375
1.5416e-05,0.002550732
1.542e-05,0.00204864
1.5424e-05,-0.00046182000000000005
1.5428000000000002e-05,-0.003139644
1.5432e-05,-0.003307008
1.5436000000000003e-05,-0.0007965480000000001
1.544e-05,0.0018812759999999999
1.5444e-05,0.002718096
1.5448000000000002e-05,0.000542364
1.5452e-05,-0.0024701880000000003
1.5456000000000002e-05,-0.003641736
1.546e-05,-0.0019680960000000003
1.5464e-05,0.001044456
1.5468e-05,0.002718096
1.5472e-05,0.001546548
1.5476000000000002e-05,-0.0012986400000000002
1.548e-05,-0.0034743720000000003
1.5484e-05,-0.002804916
1.5488e-05,4.0271999999999997e-05
1.5492e-05,0.002383368
1.5496000000000002e-05,0.002216004
1.55e-05,-0.00012709199999999998
1.5504e-05,-0.0029722800000000003
1.5508e-05,-0.003307008
1.5512e-05,-0.000963912
1.5516000000000002e-05,0.0017139120000000002
1.552e-05,0.002718096
1.5524000000000002e-05,0.000709728
1.5528e-05,-0.00213546
1.5532e-05,-0.003641736
1.5536e-05,-0.00213546
1.554e-05,0.000709728
1.5544000000000002e-05,0.002718096
1.5548e-05,0.0017139120000000002
1.5552e-05,-0.000963912
1.5556e-05,-0.003307008
1.556e-05,-0.0029722800000000003
1.5564000000000002e-05,-0.00012709199999999998
1.5568e-05,0.002216004
1.5572e-05,0.002383368
1.5576e-05,4.0271999999999997e-05
1.558e-05,-0.002804916
1.5584000000000002e-05,-0.0034743720000000003
1.5588e-05,-0.0012986400000000002
1.5592000000000003e-05,0.001546548
1.5596e-05,0.002718096
1.56e-05,0.000877092
1.5604000000000002e-05,-0.0019680960000000003
1.5608e-05,-0.0034743720000000003
1.5612000000000002e-05,-0.00213546
1.5616e-05,0.000542364
1.562e-05,0.002550732
1.5624e-05,0.0018812759999999999
1.5628e-05,-0.0007965480000000001
1.5632000000000002e-05,-0.003307008
1.5636e-05,-0.0029722800000000003
1.564e-05,-0.000294456
1.5644e-05,0.002216004
1.5648e-05,0.002383368
1.5652000000000002e-05,0.000207636
1.5656e-05,-0.002637552
1.5660000000000003e-05,-0.0034743720000000003
1.5664e-05,-0.0012986400000000002
1.5668e-05,0.0013791839999999999
1.5672000000000002e-05,0.002718096
1.5676e-05,0.001044456
1.5680000000000002e-05,-0.0018007320000000002
1.5684e-05,-0.0034743720000000003
1.5688e-05,-0.00213546
1.5692e-05,0.000542364
1.5696e-05,0.002550732
1.5700000000000002e-05,0.0017139120000000002
1.5704e-05,-0.000963912
1.5708e-05,-0.003307008
1.5712e-05,-0.0029722800000000003
1.5716e-05,-0.000294456
1.5720000000000002e-05,0.002216004
1.5724e-05,0.002383368
1.5728000000000003e-05,4.0271999999999997e-05
1.5732e-05,-0.002637552
1.5736e-05,-0.003307008
1.5740000000000002e-05,-0.001131276
1.5744e-05,0.001546548
1.5748000000000002e-05,0.002550732
1.5752e-05,0.000877092
1.5756e-05,-0.0019680960000000003
1.576e-05,-0.0034743720000000003
1.5764e-05,-0.00213546
1.5768000000000002e-05,0.000709728
1.5772e-05,0.002550732
1.5776e-05,0.0017139120000000002
1.578e-05,-0.000963912
1.5784e-05,-0.003307008
1.5788000000000002e-05,-0.002637552
1.5792e-05,4.0271999999999997e-05
1.5796000000000003e-05,0.002216004
1.58e-05,0.002216004
1.5804e-05,-0.00012709199999999998
1.5808000000000002e-05,-0.002804916
1.5812e-05,-0.003139644
1.5816000000000002e-05,-0.000963912
1.582e-05,0.0017139120000000002
1.5824e-05,0.002550732
1.5828e-05,0.000542364
1.5832e-05,-0.00213546
1.5836000000000002e-05,-0.003307008
1.584e-05,-0.0018007320000000002
1.5844e-05,0.000877092
1.5848e-05,0.002550732
1.5852e-05,0.0013791839999999999
1.5856000000000002e-05,-0.0012986400000000002
1.586e-05,-0.003307008
1.5864000000000003e-05,-0.0024701880000000003
1.5868e-05,0.000207636
1.5872e-05,0.002383368
1.5876000000000002e-05,0.00204864
1.588e-05,-0.00046182000000000005
1.5884000000000002e-05,-0.0029722800000000003
1.5888e-05,-0.0029722800000000003
1.5892e-05,-0.000629184
1.5896e-05,0.0018812759999999999
1.59e-05,0.002383368
1.5904000000000002e-05,0.000375
1.5908e-05,-0.0024701880000000003
1.5912e-05,-0.003307008
1.5916e-05,-0.001466004
1.592e-05,0.0012118200000000002
1.5924000000000002e-05,0.002550732
1.5928e-05,0.001044456
1.5932000000000003e-05,-0.001633368
1.5936e-05,-0.003307008
1.594e-05,-0.00213546
1.5944000000000002e-05,0.000542364
1.5948e-05,0.002383368
1.5952000000000002e-05,0.0017139120000000002
1.5956e-05,-0.0007965480000000001
1.596e-05,-0.003139644
1.5964e-05,-0.002804916
1.5968e-05,-0.00012709199999999998
1.5972000000000002e-05,0.002216004
1.5976e-05,0.002216004
1.598e-05,-0.00012709199999999998
1.5984e-05,-0.002637552
1.5988e-05,-0.003139644
1.5992000000000002e-05,-0.0007965480000000001
1.5996e-05,0.0017139120000000002
